SpectraSuite Data File
++++++++++++++++++++++++++++++++++++
Date: Tue Jun 16 16:44:43 CEST 2015
User: root
Dark Spectrum Present: No
Reference Spectrum Present: No
Number of Sampled Component Spectra: 1
Spectrometers: USB2G14742
Integration Time (usec): 5000 (USB2G14742)
Spectra Averaged: 5 (USB2G14742)
Boxcar Smoothing: 0 (USB2G14742)
Correct for Electrical Dark: Yes (USB2G14742)
Strobe/Lamp Enabled: No (USB2G14742)
Correct for Detector Non-linearity: Yes (USB2G14742)
Correct for Stray Light: No (USB2G14742)
Number of Pixels in Processed Spectrum: 2048
>>>>>Begin Processed Spectral Data<<<<<
339.47	-6.54
339.86	-6.54
340.24	-6.33
340.63	-5.67
341.01	-4.79
341.39	-3.92
341.78	-3.48
342.16	-1.07
342.55	-0.19
342.93	1.78
343.32	2.22
343.70	3.53
344.09	3.09
344.47	1.56
344.85	0.46
345.24	0.25
345.62	0.46
346.01	1.34
346.39	1.78
346.77	0.90
347.16	0.90
347.54	0.03
347.93	0.46
348.31	0.46
348.69	2.00
349.08	2.87
349.46	1.78
349.84	0.90
350.23	1.78
350.61	2.22
350.99	3.09
351.38	4.62
351.76	3.53
352.14	2.87
352.53	3.09
352.91	2.43
353.29	4.84
353.68	5.28
354.06	5.72
354.44	4.62
354.83	4.62
355.21	6.37
355.59	5.93
355.97	5.72
356.36	4.84
356.74	4.62
357.12	5.28
357.51	4.62
357.89	4.18
358.27	5.28
358.65	5.50
359.04	4.62
359.42	6.81
359.80	8.56
360.18	7.68
360.57	8.78
360.95	8.12
361.33	9.21
361.71	7.68
362.10	8.12
362.48	7.90
362.86	9.00
363.24	9.21
363.62	8.56
364.01	9.00
364.39	10.09
364.77	12.06
365.15	11.62
365.53	12.71
365.91	14.68
366.30	13.59
366.68	13.80
367.06	13.80
367.44	17.08
367.82	14.24
368.20	13.37
368.59	15.33
368.97	16.86
369.35	17.73
369.73	18.39
370.11	18.61
370.49	17.52
370.87	18.17
371.25	18.39
371.64	20.57
372.02	18.61
372.40	19.26
372.78	19.70
373.16	21.88
373.54	19.70
373.92	19.48
374.30	18.61
374.68	18.61
375.06	20.14
375.44	22.10
375.82	22.54
376.21	25.37
376.59	26.24
376.97	27.55
377.35	29.29
377.73	30.82
378.11	31.69
378.49	33.65
378.87	30.17
379.25	31.69
379.63	30.17
380.01	31.04
380.39	35.18
380.77	33.43
381.15	34.09
381.53	35.18
381.91	34.09
382.29	30.60
382.67	29.08
383.05	28.21
383.43	29.51
383.81	30.60
384.19	32.78
384.57	37.57
384.95	40.83
385.33	41.05
385.71	43.01
386.08	41.70
386.46	43.44
386.84	48.23
387.22	46.92
387.60	44.97
387.98	45.18
388.36	47.79
388.74	53.66
389.12	54.74
389.50	54.31
389.88	60.38
390.26	63.42
390.63	65.80
391.01	68.19
391.39	69.71
391.77	70.57
392.15	64.72
392.53	60.60
392.91	50.18
393.29	45.84
393.66	44.53
394.04	54.96
394.42	62.55
394.80	72.30
395.18	73.60
395.56	75.33
395.93	74.69
396.31	64.29
396.69	59.73
397.07	63.64
397.45	73.17
397.83	86.36
398.20	91.98
398.58	104.71
398.96	112.90
399.34	113.97
399.72	124.30
400.09	123.01
400.47	125.59
400.85	135.68
401.23	135.47
401.60	138.26
401.98	141.05
402.36	140.83
402.74	143.84
403.11	142.98
403.49	145.77
403.87	142.98
404.25	144.26
404.62	145.12
405.00	147.05
405.38	152.84
405.75	146.62
406.13	146.41
406.51	150.48
406.89	149.62
407.26	154.12
407.64	158.83
408.02	166.32
408.39	165.46
408.77	174.01
409.15	178.71
409.52	167.17
409.90	168.03
410.28	171.45
410.65	168.88
411.03	181.48
411.41	188.31
411.78	190.65
412.16	196.41
412.54	198.96
412.91	200.03
413.29	201.52
413.66	203.65
414.04	198.96
414.42	203.01
414.79	207.05
415.17	209.39
415.54	215.34
415.92	211.73
416.30	213.43
416.67	220.23
417.05	215.34
417.42	208.33
417.80	211.94
418.18	214.92
418.55	214.49
418.93	213.64
419.30	221.72
419.68	219.59
420.05	229.78
420.43	222.14
420.80	240.38
421.18	250.34
421.55	239.75
421.93	239.75
422.30	240.38
422.68	235.51
423.06	239.32
423.43	240.81
423.81	245.04
424.18	257.53
424.56	255.63
424.93	249.28
425.30	254.36
425.68	258.16
426.05	265.35
426.43	262.18
426.80	257.11
427.18	260.07
427.55	255.84
427.93	262.39
428.30	266.41
428.68	256.26
429.05	252.24
429.43	249.28
429.80	244.62
430.17	232.33
430.55	225.11
430.92	219.17
431.30	256.05
431.67	284.56
432.04	283.71
432.42	293.62
432.79	311.29
433.17	316.13
433.54	308.77
433.91	304.56
434.29	305.40
434.66	316.55
435.03	323.06
435.41	340.26
435.78	344.66
436.16	355.12
436.53	353.24
436.90	367.46
437.28	350.52
437.65	345.07
438.02	340.05
438.40	329.77
438.77	347.38
439.14	351.56
439.52	363.91
439.89	360.77
440.26	369.76
440.63	386.66
441.01	386.87
441.38	395.63
441.75	408.33
442.13	410.82
442.50	401.87
442.87	405.83
443.24	401.25
443.62	417.06
443.99	422.05
444.36	425.17
444.73	411.45
445.11	414.98
445.48	409.16
445.85	410.41
446.22	419.56
446.60	431.19
446.97	446.54
447.34	444.88
447.71	446.95
448.09	468.07
448.46	444.26
448.83	479.65
449.20	440.94
449.57	460.62
449.95	472.83
450.32	480.89
450.69	490.39
451.06	496.37
451.43	503.79
451.80	490.80
452.18	467.66
452.55	463.73
452.92	475.31
453.29	478.20
453.66	480.27
454.03	491.21
454.40	518.01
454.78	499.67
455.15	506.06
455.52	507.92
455.89	515.54
456.26	505.65
456.63	518.42
457.00	508.53
457.37	519.86
457.74	520.07
458.12	527.47
458.49	506.47
458.86	518.63
459.23	524.80
459.60	512.86
459.97	526.24
460.34	522.33
460.71	543.30
461.08	557.25
461.45	536.93
461.82	546.17
462.19	567.91
462.56	557.46
462.93	553.97
463.30	540.42
463.67	530.97
464.04	547.61
464.41	547.40
464.78	539.60
465.15	536.52
465.52	550.89
465.89	557.25
466.26	558.07
466.63	535.08
467.00	556.02
467.37	563.20
467.74	567.09
468.11	563.20
468.48	566.68
468.85	581.84
469.22	597.99
469.59	578.56
469.96	576.10
470.33	572.83
470.70	584.50
471.07	603.30
471.44	600.65
471.81	612.08
472.18	605.14
472.55	615.96
472.91	635.93
473.28	599.83
473.65	618.00
474.02	630.02
474.39	651.60
474.76	651.40
475.13	672.93
475.50	666.64
475.87	653.63
476.23	679.83
476.60	676.38
476.97	667.04
477.34	687.94
477.71	688.96
478.08	687.33
478.45	693.41
478.81	712.65
479.18	721.95
479.55	720.53
479.92	734.68
480.29	756.46
480.65	743.56
481.02	745.98
481.39	734.47
481.76	765.73
482.13	784.85
482.49	762.91
482.86	766.94
483.23	786.66
483.60	778.21
483.97	766.34
484.33	772.18
484.70	770.16
485.07	760.09
485.44	736.49
485.80	696.45
486.17	674.55
486.54	693.62
486.91	699.90
487.27	723.36
487.64	754.85
488.01	781.83
488.38	772.18
488.74	786.26
489.11	785.86
489.48	800.53
489.84	815.98
490.21	831.22
490.58	830.62
490.94	822.00
491.31	809.36
491.68	811.97
492.04	790.68
492.41	802.33
492.78	819.39
493.14	832.02
493.51	830.62
493.88	829.22
494.24	836.63
494.61	856.64
494.98	860.44
495.34	839.23
495.71	852.24
496.08	841.23
496.44	857.84
496.81	853.04
497.17	861.24
497.54	848.24
497.91	836.23
498.27	838.43
498.64	823.60
499.00	836.43
499.37	835.43
499.74	822.40
500.10	819.39
500.47	811.77
500.83	811.97
501.20	791.69
501.56	794.90
501.93	798.52
502.30	807.96
502.66	812.77
503.03	810.36
503.39	805.95
503.76	799.92
504.12	795.10
504.49	801.73
504.85	815.18
505.22	822.20
505.58	829.62
505.95	839.23
506.31	842.64
506.68	830.62
507.04	825.81
507.41	814.98
507.77	817.39
508.14	816.18
508.50	812.77
508.87	835.83
509.23	826.21
509.59	827.21
509.96	823.60
510.32	821.20
510.69	829.02
511.05	834.22
511.42	841.43
511.78	839.43
512.15	833.82
512.51	826.41
512.87	820.39
513.24	808.76
513.60	806.75
513.97	800.73
514.33	802.53
514.69	801.13
515.06	804.54
515.42	802.33
515.79	802.74
516.15	777.61
516.51	751.22
516.88	724.58
517.24	716.09
517.60	725.99
517.97	729.22
518.33	716.09
518.69	729.43
519.06	750.62
519.42	771.37
519.78	774.39
520.15	795.10
520.51	795.30
520.87	794.10
521.24	804.34
521.60	805.55
521.96	815.78
522.33	804.94
522.69	790.68
523.05	782.24
523.41	804.14
523.78	817.99
524.14	826.41
524.50	813.98
524.86	821.00
525.23	818.59
525.59	812.77
525.95	800.33
526.32	774.99
526.68	759.08
527.04	745.78
527.40	767.14
527.76	777.01
528.13	795.91
528.49	806.55
528.85	814.38
529.21	811.17
529.57	823.00
529.94	812.97
530.30	820.60
530.66	828.01
531.02	837.83
531.38	823.80
531.75	820.80
532.11	809.16
532.47	793.70
532.83	786.46
533.19	792.69
533.55	795.30
533.92	797.31
534.28	800.53
534.64	803.74
535.00	814.18
535.36	825.01
535.72	830.82
536.08	820.19
536.44	805.55
536.81	805.75
537.17	795.71
537.53	803.54
537.89	801.33
538.25	805.35
538.61	807.76
538.97	797.51
539.33	787.87
539.69	781.83
540.05	770.56
540.41	764.72
540.78	753.84
541.14	759.69
541.50	766.34
541.86	770.16
542.22	772.98
542.58	772.38
542.94	766.94
543.30	763.92
543.66	771.77
544.02	777.41
544.38	773.18
544.74	773.18
545.10	771.57
545.46	771.17
545.82	772.78
546.18	772.38
546.54	774.59
546.90	764.32
547.26	757.67
547.62	758.48
547.98	754.25
548.34	761.90
548.70	767.34
549.06	765.53
549.42	768.15
549.78	757.27
550.13	769.76
550.49	760.70
550.85	765.73
551.21	752.63
551.57	756.26
551.93	757.87
552.29	754.65
552.65	747.59
553.01	745.17
553.37	751.63
553.73	752.23
554.09	753.04
554.44	761.30
554.80	764.12
555.16	762.11
555.52	753.24
555.88	751.83
556.24	733.26
556.60	723.97
556.95	732.05
557.31	717.10
557.67	712.85
558.03	718.11
558.39	712.04
558.75	704.75
559.10	703.34
559.46	711.03
559.82	697.26
560.18	711.23
560.54	711.23
560.90	719.52
561.25	717.10
561.61	708.80
561.97	703.74
562.33	708.60
562.68	714.87
563.04	710.62
563.40	703.74
563.76	701.31
564.12	706.98
564.47	698.28
564.83	703.54
565.19	696.05
565.55	689.56
565.90	688.96
566.26	678.21
566.62	684.29
566.97	690.78
567.33	687.54
567.69	690.58
568.05	680.64
568.40	673.95
568.76	670.50
569.12	669.28
569.47	662.78
569.83	659.73
570.19	661.15
570.54	651.60
570.90	651.60
571.26	653.63
571.61	659.73
571.97	665.22
572.33	671.31
572.68	669.28
573.04	675.37
573.40	669.89
573.75	668.06
574.11	670.09
574.47	660.34
574.82	660.54
575.18	645.29
575.53	642.44
575.89	644.28
576.25	652.41
576.60	645.90
576.96	651.60
577.31	652.62
577.67	650.79
578.03	642.65
578.38	637.56
578.74	639.19
579.09	638.58
579.45	643.05
579.80	651.40
580.16	655.06
580.51	651.19
580.87	647.12
581.23	647.53
581.58	649.56
581.94	659.93
582.29	663.39
582.65	657.90
583.00	653.63
583.36	654.85
583.71	655.26
584.07	655.46
584.42	653.23
584.78	641.83
585.13	639.80
585.49	641.43
585.84	628.80
586.20	632.67
586.55	628.60
586.91	631.04
587.26	621.26
587.61	616.16
587.97	599.42
588.32	576.31
588.68	551.10
589.03	529.32
589.39	525.62
589.74	525.83
590.09	534.26
590.45	541.86
590.80	553.77
591.16	549.87
591.51	557.46
591.86	548.84
592.22	550.69
592.57	559.71
592.93	566.89
593.28	565.25
593.63	563.40
593.99	556.84
594.34	545.56
594.69	547.40
595.05	544.12
595.40	547.40
595.76	549.66
596.11	563.61
596.46	562.99
596.82	560.12
597.17	566.48
597.52	557.87
597.87	557.66
598.23	563.61
598.58	558.89
598.93	560.33
599.29	566.27
599.64	554.59
599.99	565.86
600.35	568.32
600.70	561.15
601.05	555.61
601.40	558.69
601.76	563.40
602.11	556.02
602.46	555.00
602.81	558.69
603.17	564.63
603.52	569.96
603.87	560.53
604.22	569.14
604.58	563.81
604.93	570.78
605.28	566.68
605.63	569.14
605.98	557.66
606.34	556.64
606.69	555.41
607.04	558.89
607.39	557.66
607.74	556.84
608.10	544.12
608.45	554.38
608.80	545.56
609.15	543.09
609.50	546.99
609.85	536.52
610.21	540.42
610.56	545.56
610.91	541.24
611.26	543.50
611.61	535.08
611.96	535.28
612.31	532.82
612.67	537.75
613.02	528.50
613.37	527.27
613.72	522.74
614.07	518.21
614.42	520.48
614.77	523.98
615.12	523.77
615.47	521.30
615.82	514.30
616.17	503.18
616.53	504.41
616.88	507.30
617.23	507.92
617.58	508.53
617.93	519.24
618.28	512.86
618.63	517.80
618.98	515.13
619.33	515.74
619.68	511.01
620.03	515.33
620.38	515.95
620.73	516.15
621.08	515.13
621.43	506.68
621.78	514.51
622.13	507.30
622.48	512.86
622.83	499.67
623.18	502.35
623.53	500.70
623.88	490.39
624.23	498.02
624.58	488.53
624.93	489.36
625.28	483.37
625.63	485.64
625.98	482.34
626.32	482.13
626.67	488.94
627.02	479.24
627.37	480.48
627.72	463.52
628.07	456.07
628.42	459.59
628.77	459.18
629.12	461.25
629.47	459.38
629.82	461.45
630.16	464.76
630.51	463.52
630.86	469.93
631.21	460.42
631.56	455.45
631.91	456.90
632.26	466.00
632.60	463.31
632.95	458.97
633.30	461.87
633.65	460.21
634.00	460.83
634.35	458.97
634.69	466.21
635.04	459.18
635.39	463.52
635.74	463.94
636.09	460.21
636.43	462.90
636.78	460.42
637.13	459.18
637.48	463.73
637.83	462.49
638.17	459.38
638.52	464.76
638.87	455.66
639.22	455.86
639.56	451.31
639.91	444.47
640.26	446.33
640.61	439.49
640.95	443.22
641.30	441.15
641.65	439.28
642.00	445.50
642.34	440.94
642.69	433.68
643.04	435.13
643.38	436.38
643.73	429.94
644.08	438.45
644.43	429.32
644.77	432.02
645.12	427.66
645.47	418.10
645.81	418.72
646.16	415.40
646.51	402.29
646.85	399.38
647.20	388.75
647.54	390.21
647.89	383.74
648.24	387.91
648.58	384.16
648.93	377.07
649.28	378.32
649.62	382.07
649.97	384.16
650.31	395.42
650.66	391.87
651.01	387.50
651.35	382.07
651.70	375.60
652.04	382.07
652.39	382.91
652.74	387.08
653.08	387.71
653.43	382.70
653.77	382.91
654.12	380.82
654.46	386.45
654.81	372.89
655.15	366.41
655.50	349.05
655.85	336.48
656.19	322.85
656.54	326.42
656.88	330.82
657.23	335.85
657.57	350.94
657.92	353.45
658.26	351.56
658.61	358.68
658.95	367.04
659.30	364.32
659.64	366.41
659.98	363.70
660.33	372.47
660.67	374.35
661.02	369.76
661.36	367.25
661.71	374.14
662.05	373.93
662.40	368.71
662.74	372.68
663.09	366.20
663.43	358.89
663.77	369.76
664.12	361.40
664.46	364.53
664.81	362.86
665.15	362.44
665.49	359.52
665.84	358.47
666.18	357.63
666.53	356.17
666.87	355.33
667.21	353.45
667.56	357.01
667.90	350.94
668.24	353.03
668.59	355.12
668.93	348.42
669.27	351.15
669.62	346.54
669.96	346.75
670.30	346.12
670.65	347.17
670.99	342.56
671.33	344.03
671.68	342.98
672.02	342.56
672.36	342.14
672.71	339.42
673.05	336.06
673.39	337.95
673.73	341.93
674.08	331.24
674.42	340.26
674.76	333.34
675.11	331.45
675.45	334.39
675.79	331.45
676.13	329.56
676.48	333.34
676.82	329.98
677.16	329.14
677.50	327.25
677.84	329.35
678.19	325.37
678.53	328.30
678.87	326.83
679.21	323.27
679.55	323.90
679.90	325.79
680.24	324.11
680.58	318.44
680.92	316.97
681.26	317.60
681.61	323.48
681.95	315.92
682.29	313.81
682.63	317.60
682.97	311.92
683.31	307.93
683.65	305.19
684.00	307.93
684.34	302.25
684.68	305.83
685.02	303.09
685.36	301.41
685.70	296.78
686.04	288.98
686.38	270.84
686.73	246.74
687.07	231.90
687.41	228.30
687.75	227.24
688.09	234.24
688.43	237.20
688.77	235.51
689.11	237.84
689.45	240.38
689.79	243.14
690.13	243.77
690.47	255.20
690.81	254.36
691.15	255.63
691.49	258.59
691.83	248.86
692.17	251.61
692.51	251.39
692.85	249.70
693.19	244.41
693.53	245.68
693.87	238.48
694.21	236.36
694.55	240.81
694.89	240.38
695.23	233.81
695.57	239.96
695.91	249.91
696.25	252.88
696.59	258.59
696.93	255.63
697.27	260.07
697.61	259.22
697.95	253.51
698.29	248.01
698.63	246.31
698.97	243.14
699.31	241.44
699.65	236.99
699.99	236.99
700.32	236.99
700.66	237.20
701.00	230.42
701.34	229.15
701.68	226.81
702.02	226.39
702.36	227.45
702.70	235.08
703.04	238.05
703.37	237.42
703.71	236.36
704.05	237.63
704.39	239.96
704.73	240.17
705.07	238.48
705.40	242.29
705.74	238.48
706.08	239.32
706.42	239.32
706.76	234.66
707.10	236.99
707.43	237.20
707.77	236.78
708.11	237.63
708.45	238.90
708.78	234.02
709.12	234.87
709.46	236.78
709.80	238.26
710.14	235.93
710.47	237.63
710.81	230.84
711.15	231.27
711.49	235.30
711.82	234.24
712.16	231.06
712.50	230.42
712.83	230.42
713.17	228.08
713.51	225.54
713.85	227.87
714.18	224.26
714.52	219.80
714.86	220.23
715.19	217.68
715.53	214.28
715.87	206.41
716.20	195.13
716.54	181.70
716.88	169.31
717.21	163.75
717.55	157.12
717.89	144.69
718.22	141.26
718.56	138.26
718.90	135.47
719.23	130.96
719.57	126.45
719.91	131.60
720.24	132.03
720.58	141.91
720.91	149.62
721.25	159.04
721.59	167.60
721.92	172.52
722.26	176.57
722.59	172.94
722.93	165.25
723.27	154.98
723.60	154.98
723.94	150.05
724.27	145.77
724.61	143.84
724.94	144.91
725.28	139.76
725.61	142.98
725.95	142.55
726.28	142.12
726.62	147.48
726.96	142.76
727.29	138.47
727.63	140.19
727.96	141.48
728.30	149.41
728.63	145.77
728.97	139.97
729.30	145.34
729.63	146.62
729.97	144.69
730.30	144.05
730.64	142.98
730.97	144.69
731.31	148.34
731.64	151.55
731.98	158.19
732.31	163.11
732.65	167.81
732.98	169.31
733.31	175.51
733.65	176.57
733.98	181.06
734.32	178.92
734.65	180.42
734.98	179.99
735.32	180.63
735.65	184.68
735.99	176.79
736.32	177.85
736.65	175.93
736.99	180.20
737.32	176.15
737.66	182.12
737.99	182.34
738.32	179.99
738.66	180.20
738.99	182.55
739.32	182.12
739.66	179.78
739.99	185.32
740.32	183.62
740.66	184.90
740.99	186.18
741.32	185.54
741.65	187.03
741.99	188.52
742.32	188.74
742.65	184.26
742.99	191.29
743.32	190.44
743.65	188.52
743.98	192.15
744.32	191.08
744.65	194.92
744.98	190.87
745.32	192.57
745.65	194.70
745.98	191.08
746.31	194.28
746.64	189.59
746.98	187.03
747.31	191.72
747.64	189.80
747.97	190.01
748.31	186.18
748.64	190.44
748.97	184.90
749.30	187.46
749.63	185.11
749.96	190.65
750.30	186.82
750.63	185.11
750.96	185.32
751.29	186.39
751.62	181.70
751.95	187.24
752.29	184.26
752.62	179.78
752.95	181.48
753.28	178.92
753.61	184.04
753.94	185.11
754.27	183.83
754.60	182.12
754.94	182.34
755.27	182.34
755.60	178.28
755.93	177.43
756.26	173.80
756.59	179.56
756.92	172.30
757.25	173.58
757.58	176.36
757.91	171.45
758.24	174.86
758.57	166.96
758.90	149.62
759.24	133.75
759.57	105.79
759.90	81.61
760.23	66.02
760.56	52.79
760.89	46.92
761.22	52.14
761.55	54.96
761.88	61.47
762.21	61.25
762.54	59.08
762.87	58.43
763.20	56.04
763.53	58.65
763.86	62.77
764.19	67.32
764.52	72.09
764.85	75.55
765.17	82.91
765.50	91.33
765.83	98.02
766.16	106.65
766.49	109.45
766.82	118.28
767.15	125.16
767.48	131.60
767.81	135.68
768.14	141.69
768.47	138.69
768.80	141.91
769.13	144.91
769.45	143.84
769.78	146.84
770.11	145.34
770.44	147.27
770.77	147.91
771.10	147.91
771.43	145.12
771.75	150.05
772.08	148.98
772.41	144.69
772.74	147.48
773.07	143.84
773.40	148.55
773.73	145.55
774.05	145.34
774.38	148.34
774.71	142.33
775.04	141.91
775.37	142.76
775.69	144.48
776.02	140.83
776.35	143.62
776.68	138.90
777.00	142.33
777.33	139.55
777.66	140.83
777.99	133.32
778.32	134.82
778.64	133.75
778.97	133.11
779.30	135.90
779.62	132.68
779.95	134.61
780.28	137.40
780.61	130.10
780.93	130.96
781.26	131.17
781.59	129.46
781.92	129.89
782.24	128.38
782.57	128.60
782.90	127.52
783.22	128.38
783.55	126.88
783.88	120.00
784.20	124.73
784.53	125.80
784.86	121.93
785.18	120.21
785.51	123.65
785.84	118.71
786.16	121.07
786.49	120.21
786.81	118.71
787.14	115.69
787.47	117.63
787.79	112.46
788.12	111.82
788.44	113.11
788.77	114.40
789.10	111.17
789.42	108.59
789.75	110.53
790.07	105.79
790.40	105.79
790.73	103.42
791.05	106.22
791.38	107.30
791.70	105.79
792.03	103.63
792.35	102.77
792.68	99.32
793.00	102.34
793.33	106.22
793.65	107.51
793.98	107.73
794.30	105.57
794.63	103.42
794.95	103.42
795.28	106.43
795.60	99.32
795.93	101.48
796.25	99.10
796.58	97.59
796.90	98.89
797.23	99.97
797.55	100.61
797.88	100.83
798.20	102.77
798.53	97.16
798.85	97.59
799.17	98.89
799.50	98.46
799.82	96.95
800.15	94.57
800.47	95.22
800.80	92.84
801.12	96.51
801.44	89.39
801.77	94.14
802.09	94.14
802.42	87.88
802.74	92.41
803.06	90.90
803.39	91.76
803.71	91.12
804.03	89.82
804.36	93.28
804.68	90.90
805.00	86.58
805.33	92.63
805.65	90.25
805.97	90.25
806.30	92.84
806.62	93.28
806.94	86.15
807.27	91.55
807.59	93.06
807.91	87.44
808.24	87.88
808.56	82.47
808.88	83.34
809.21	85.28
809.53	83.34
809.85	82.26
810.17	78.80
810.50	78.58
810.82	75.77
811.14	77.28
811.46	76.42
811.79	73.82
812.11	74.47
812.43	71.22
812.75	66.24
813.07	67.11
813.40	64.50
813.72	62.99
814.04	59.52
814.36	58.22
814.69	53.66
815.01	55.39
815.33	53.01
815.65	50.62
815.97	49.10
816.29	47.79
816.62	48.88
816.94	49.31
817.26	47.57
817.58	49.10
817.90	48.23
818.22	47.57
818.54	50.62
818.87	46.27
819.19	49.31
819.51	47.36
819.83	52.35
820.15	55.83
820.47	58.43
820.79	59.95
821.11	59.52
821.43	62.55
821.76	56.26
822.08	52.79
822.40	50.18
822.72	45.40
823.04	43.01
823.36	43.44
823.68	44.53
824.00	53.22
824.32	53.66
824.64	51.27
824.96	53.87
825.28	57.56
825.60	53.22
825.92	53.87
826.24	53.01
826.56	53.66
826.88	56.70
827.20	55.18
827.52	52.79
827.84	48.66
828.16	52.35
828.48	53.01
828.80	49.75
829.12	49.10
829.44	50.62
829.76	50.40
830.08	53.44
830.40	49.10
830.72	49.10
831.04	49.75
831.36	50.83
831.68	52.14
832.00	52.35
832.31	51.70
832.63	53.22
832.95	51.70
833.27	51.05
833.59	49.96
833.91	52.14
834.23	54.09
834.55	54.53
834.87	54.09
835.19	54.96
835.50	53.44
835.82	54.74
836.14	56.70
836.46	54.53
836.78	54.53
837.10	55.18
837.41	54.96
837.73	57.78
838.05	54.53
838.37	57.35
838.69	59.52
839.01	57.13
839.32	55.18
839.64	56.04
839.96	57.13
840.28	56.04
840.60	56.91
840.91	58.87
841.23	55.61
841.55	57.13
841.87	58.00
842.18	55.61
842.50	58.87
842.82	57.13
843.14	54.96
843.45	56.91
843.77	54.53
844.09	53.22
844.41	53.66
844.72	56.04
845.04	56.91
845.36	57.56
845.67	56.04
845.99	58.43
846.31	57.78
846.63	55.39
846.94	56.91
847.26	56.26
847.58	55.39
847.89	57.13
848.21	55.83
848.53	57.78
848.84	56.70
849.16	56.70
849.48	52.57
849.79	52.79
850.11	52.14
850.42	52.14
850.74	52.14
851.06	51.70
851.37	52.14
851.69	50.18
852.00	52.57
852.32	52.79
852.64	52.57
852.95	49.53
853.27	52.35
853.58	48.01
853.90	48.44
854.22	47.79
854.53	45.18
854.85	44.75
855.16	46.27
855.48	48.66
855.79	48.44
856.11	51.05
856.42	49.31
856.74	49.10
857.05	49.53
857.37	49.96
857.68	49.96
858.00	48.88
858.31	51.27
858.63	48.88
858.94	49.75
859.26	48.23
859.57	47.79
859.89	50.18
860.20	50.62
860.52	48.44
860.83	50.18
861.15	49.10
861.46	48.44
861.78	48.01
862.09	47.14
862.41	49.96
862.72	47.36
863.03	48.66
863.35	47.36
863.66	50.62
863.98	46.49
864.29	49.53
864.60	47.79
864.92	51.27
865.23	47.79
865.55	41.92
865.86	41.92
866.17	44.31
866.49	43.23
866.80	40.62
867.11	44.31
867.43	43.23
867.74	43.01
868.06	41.05
868.37	44.31
868.68	42.14
869.00	43.01
869.31	44.97
869.62	43.01
869.93	43.23
870.25	46.05
870.56	44.75
870.87	42.36
871.19	45.40
871.50	44.31
871.81	45.62
872.13	44.75
872.44	44.31
872.75	40.62
873.06	41.70
873.38	44.31
873.69	41.49
874.00	41.49
874.31	42.57
874.63	42.36
874.94	42.14
875.25	39.09
875.56	37.79
875.87	41.70
876.19	41.49
876.50	39.53
876.81	38.88
877.12	39.75
877.43	40.62
877.75	37.57
878.06	38.66
878.37	38.66
878.68	38.44
878.99	38.66
879.30	36.26
879.62	37.14
879.93	37.57
880.24	36.92
880.55	37.35
880.86	36.05
881.17	35.61
881.48	36.48
881.80	37.57
882.11	38.66
882.42	36.70
882.73	35.61
883.04	35.18
883.35	35.83
883.66	33.00
883.97	36.05
884.28	34.09
884.59	32.78
884.90	35.83
885.21	33.43
885.53	33.87
885.84	32.78
886.15	32.78
886.46	32.35
886.77	31.91
887.08	33.87
887.39	33.43
887.70	34.09
888.01	33.43
888.32	32.35
888.63	33.00
888.94	34.52
889.25	34.31
889.56	32.78
889.87	32.78
890.18	31.91
890.49	31.91
890.80	33.00
891.11	33.00
891.42	31.91
891.73	32.13
892.04	30.82
892.34	30.17
892.65	30.17
892.96	29.95
893.27	29.08
893.58	28.42
893.89	28.21
894.20	27.55
894.51	27.99
894.82	26.46
895.13	26.90
895.44	25.37
895.74	22.54
896.05	23.41
896.36	21.44
896.67	21.88
896.98	21.88
897.29	20.14
897.60	23.41
897.91	20.14
898.21	17.30
898.52	17.95
898.83	17.30
899.14	16.42
899.45	18.39
899.76	17.52
900.06	19.26
900.37	18.83
900.68	17.52
900.99	19.70
901.30	17.08
901.60	17.30
901.91	15.99
902.22	18.17
902.53	18.17
902.83	18.83
903.14	17.30
903.45	20.14
903.76	19.26
904.06	21.01
904.37	22.54
904.68	22.97
904.99	20.35
905.29	18.83
905.60	19.04
905.91	19.92
906.22	19.26
906.52	19.48
906.83	21.01
907.14	18.83
907.44	17.52
907.75	16.64
908.06	17.52
908.36	15.77
908.67	18.61
908.98	17.52
909.28	16.86
909.59	14.90
909.90	14.02
910.20	13.15
910.51	14.46
910.82	15.77
911.12	14.24
911.43	12.93
911.73	12.93
912.04	13.59
912.35	15.11
912.65	15.11
912.96	15.55
913.26	14.68
913.57	11.62
913.88	12.71
914.18	14.02
914.49	14.90
914.79	13.59
915.10	12.71
915.40	10.96
915.71	11.40
916.02	11.18
916.32	13.59
916.63	14.24
916.93	13.80
917.24	12.27
917.54	11.62
917.85	12.27
918.15	12.27
918.46	12.06
918.76	12.27
919.07	15.11
919.37	14.90
919.68	16.21
919.98	16.21
920.29	13.37
920.59	16.86
920.90	16.42
921.20	14.68
921.50	14.46
921.81	13.15
922.11	13.37
922.42	16.21
922.72	15.77
923.03	14.46
923.33	14.46
923.63	14.02
923.94	11.84
924.24	13.59
924.55	14.02
924.85	14.02
925.15	14.24
925.46	13.15
925.76	14.02
926.07	13.59
926.37	13.15
926.67	12.93
926.98	12.71
927.28	12.71
927.58	12.27
927.89	12.71
928.19	12.49
928.49	11.84
928.80	12.27
929.10	10.53
929.40	11.84
929.71	9.21
930.01	9.87
930.31	8.78
930.62	8.12
930.92	5.06
931.22	6.81
931.52	7.90
931.83	8.12
932.13	6.37
932.43	5.50
932.73	7.03
933.04	6.81
933.34	5.93
933.64	5.06
933.94	3.75
934.25	4.84
934.55	5.50
934.85	4.40
935.15	5.06
935.45	3.09
935.76	4.62
936.06	7.47
936.36	6.37
936.66	4.84
936.96	3.31
937.27	3.97
937.57	4.62
937.87	5.06
938.17	3.97
938.47	3.09
938.77	2.87
939.08	3.97
939.38	3.31
939.68	4.18
939.98	6.37
940.28	7.03
940.58	7.47
940.88	5.50
941.18	5.72
941.49	5.28
941.79	6.59
942.09	6.81
942.39	6.15
942.69	5.28
942.99	5.72
943.29	4.18
943.59	4.62
943.89	4.62
944.19	5.93
944.49	4.18
944.79	3.97
945.09	4.62
945.39	4.40
945.70	4.84
946.00	3.97
946.30	3.97
946.60	3.75
946.90	4.18
947.20	4.62
947.50	3.75
947.80	3.53
948.10	4.40
948.40	5.50
948.70	4.40
949.00	5.28
949.30	4.62
949.59	5.06
949.89	4.62
950.19	5.28
950.49	5.28
950.79	4.40
951.09	4.40
951.39	5.06
951.69	3.75
951.99	3.97
952.29	3.75
952.59	4.18
952.89	3.97
953.19	3.09
953.49	4.84
953.78	5.72
954.08	3.75
954.38	4.18
954.68	4.84
954.98	3.31
955.28	3.75
955.58	4.84
955.88	5.28
956.17	3.97
956.47	4.62
956.77	4.84
957.07	5.28
957.37	6.37
957.67	6.81
957.96	7.47
958.26	6.59
958.56	4.62
958.86	2.22
959.16	2.65
959.45	3.53
959.75	3.75
960.05	3.75
960.35	4.62
960.64	4.84
960.94	5.72
961.24	6.37
961.54	6.15
961.83	6.15
962.13	4.84
962.43	5.72
962.73	5.28
963.02	4.62
963.32	4.84
963.62	5.72
963.92	4.62
964.21	5.50
964.51	4.84
964.81	4.62
965.10	6.37
965.40	5.50
965.70	5.06
965.99	5.72
966.29	5.28
966.59	6.81
966.88	4.84
967.18	5.93
967.48	5.93
967.77	6.37
968.07	5.28
968.37	6.15
968.66	8.34
968.96	7.03
969.25	7.25
969.55	7.25
969.85	6.15
970.14	5.93
970.44	7.47
970.73	5.50
971.03	7.03
971.33	7.68
971.62	6.37
971.92	6.81
972.21	5.28
972.51	5.50
972.80	6.59
973.10	6.37
973.40	5.72
973.69	7.68
973.99	8.34
974.28	7.68
974.58	7.25
974.87	5.93
975.17	5.50
975.46	7.25
975.76	5.72
976.05	5.93
976.35	6.81
976.64	6.81
976.94	7.68
977.23	5.93
977.53	6.59
977.82	6.59
978.11	5.93
978.41	5.72
978.70	4.62
979.00	5.28
979.29	6.81
979.59	6.15
979.88	5.50
980.18	5.72
980.47	6.15
980.76	5.72
981.06	5.72
981.35	5.50
981.65	5.28
981.94	4.62
982.23	4.18
982.53	4.84
982.82	6.15
983.11	7.03
983.41	5.28
983.70	4.62
984.00	6.15
984.29	6.81
984.58	5.28
984.88	4.18
985.17	5.72
985.46	5.28
985.76	5.28
986.05	5.28
986.34	7.03
986.63	6.15
986.93	5.50
987.22	5.93
987.51	5.28
987.81	3.53
988.10	4.84
988.39	5.93
988.68	4.62
988.98	5.93
989.27	6.59
989.56	6.59
989.85	6.15
990.15	7.25
990.44	8.78
990.73	7.90
991.02	7.68
991.32	7.90
991.61	6.81
991.90	5.28
992.19	5.06
992.48	5.06
992.78	5.06
993.07	5.06
993.36	6.15
993.65	5.72
993.94	6.15
994.23	6.37
994.53	4.40
994.82	3.97
995.11	4.40
995.40	5.06
995.69	5.50
995.98	5.28
996.27	4.62
996.57	3.75
996.86	5.72
997.15	5.72
997.44	6.59
997.73	5.72
998.02	6.81
998.31	7.03
998.60	5.28
998.89	6.37
999.18	6.37
999.48	5.06
999.77	4.62
1000.06	4.84
1000.35	4.84
1000.64	5.72
1000.93	6.81
1001.22	7.47
1001.51	3.97
1001.80	5.50
1002.09	5.93
1002.38	6.59
1002.67	5.06
1002.96	5.06
1003.25	5.06
1003.54	3.75
1003.83	3.09
1004.12	4.40
1004.41	4.40
1004.70	5.06
1004.99	4.18
1005.28	3.31
1005.57	4.18
1005.86	6.37
1006.15	7.25
1006.44	4.62
1006.72	3.31
1007.01	4.84
1007.30	4.84
1007.59	5.50
1007.88	4.40
1008.17	5.06
1008.46	4.62
1008.75	4.84
1009.04	5.93
1009.33	4.40
1009.62	6.15
1009.90	5.28
1010.19	4.62
1010.48	4.84
1010.77	5.28
1011.06	7.03
1011.35	4.62
1011.64	3.75
1011.92	4.62
1012.21	6.15
1012.50	7.25
1012.79	6.59
1013.08	2.87
1013.37	3.97
1013.65	5.28
1013.94	4.84
1014.23	4.18
1014.52	5.06
1014.80	3.97
1015.09	3.53
1015.38	2.87
1015.67	4.84
1015.96	6.15
1016.24	3.53
1016.53	1.78
1016.82	2.43
1017.11	2.00
1017.39	2.87
1017.68	2.00
1017.97	3.53
1018.25	5.06
1018.54	4.18
1018.83	5.50
1019.12	5.06
1019.40	3.09
1019.69	4.40
1019.98	5.50
1020.26	2.87
1020.55	2.87
1020.84	3.75
1021.12	2.65
1021.41	3.09
1021.70	5.28
1021.98	4.18
1022.27	3.31
1022.56	4.40
1022.84	3.09
1023.13	4.18
1023.42	3.31
1023.70	2.00
1023.99	2.43
1024.27	3.75
1024.56	4.62
1024.85	3.97
1025.13	3.97
1025.42	4.18
1025.70	2.87
1025.99	3.97
1026.27	4.62
1026.56	4.84
1026.85	3.53
1027.13	2.22
1027.42	4.18
1027.70	4.40
1027.99	6.59
1028.27	3.31
1028.56	4.40
1028.84	3.97
>>>>>End Processed Spectral Data<<<<<
