SpectraSuite Data File
++++++++++++++++++++++++++++++++++++
Date: Tue Jun 16 17:04:58 CEST 2015
User: root
Dark Spectrum Present: No
Reference Spectrum Present: No
Number of Sampled Component Spectra: 1
Spectrometers: USB2G14742
Integration Time (usec): 3000 (USB2G14742)
Spectra Averaged: 5 (USB2G14742)
Boxcar Smoothing: 0 (USB2G14742)
Correct for Electrical Dark: Yes (USB2G14742)
Strobe/Lamp Enabled: No (USB2G14742)
Correct for Detector Non-linearity: Yes (USB2G14742)
Correct for Stray Light: No (USB2G14742)
Number of Pixels in Processed Spectrum: 2048
>>>>>Begin Processed Spectral Data<<<<<
339.47	-7.75
339.86	-7.75
340.24	-6.21
340.63	-5.12
341.01	-3.80
341.39	-2.92
341.78	-3.14
342.16	-1.83
342.55	0.14
342.93	0.36
343.32	0.80
343.70	-0.08
344.09	1.45
344.47	1.67
344.85	2.33
345.24	2.11
345.62	2.55
346.01	2.33
346.39	2.55
346.77	1.02
347.16	0.14
347.54	1.02
347.93	0.58
348.31	0.80
348.69	0.36
349.08	1.02
349.46	2.11
349.84	3.21
350.23	4.74
350.61	3.64
350.99	3.42
351.38	3.64
351.76	4.30
352.14	3.64
352.53	4.52
352.91	3.86
353.29	3.21
353.68	3.21
354.06	4.96
354.44	5.17
354.83	5.61
355.21	4.30
355.59	3.86
355.97	6.05
356.36	4.52
356.74	3.86
357.12	6.05
357.51	6.05
357.89	4.96
358.27	6.49
358.65	5.83
359.04	3.21
359.42	3.86
359.80	7.36
360.18	7.58
360.57	7.80
360.95	7.58
361.33	7.14
361.71	7.14
362.10	8.89
362.48	8.67
362.86	9.99
363.24	10.42
363.62	8.89
364.01	9.77
364.39	9.77
364.77	10.86
365.15	9.55
365.53	10.42
365.91	13.48
366.30	12.39
366.68	12.83
367.06	14.79
367.44	13.92
367.82	14.36
368.20	12.83
368.59	13.26
368.97	15.23
369.35	15.67
369.73	15.67
370.11	16.32
370.49	15.67
370.87	15.88
371.25	16.10
371.64	17.41
372.02	16.76
372.40	15.01
372.78	16.54
373.16	18.07
373.54	16.76
373.92	17.41
374.30	18.07
374.68	19.38
375.06	18.72
375.44	20.25
375.82	20.69
376.21	22.87
376.59	22.65
376.97	26.58
377.35	27.23
377.73	27.23
378.11	29.41
378.49	30.72
378.87	28.32
379.25	30.28
379.63	28.54
380.01	32.24
380.39	31.81
380.77	32.46
381.15	31.59
381.53	30.50
381.91	30.72
382.29	28.32
382.67	25.92
383.05	26.58
383.43	25.49
383.81	28.54
384.19	33.55
384.57	32.68
384.95	35.51
385.33	35.51
385.71	35.94
386.08	37.03
386.46	38.56
386.84	39.86
387.22	41.38
387.60	39.86
387.98	40.73
388.36	44.86
388.74	45.95
389.12	49.21
389.50	49.86
389.88	56.59
390.26	56.81
390.63	58.33
391.01	62.23
391.39	65.05
391.77	61.15
392.15	60.06
392.53	52.69
392.91	48.12
393.29	40.30
393.66	42.25
394.04	49.43
394.42	54.64
394.80	63.97
395.18	66.79
395.56	68.52
395.93	65.92
396.31	57.03
396.69	55.29
397.07	55.72
397.45	60.28
397.83	77.83
398.20	81.72
398.58	92.96
398.96	100.29
399.34	103.96
399.72	107.41
400.09	108.92
400.47	109.13
400.85	116.24
401.23	119.25
401.60	120.97
401.98	128.49
402.36	129.14
402.74	129.78
403.11	124.41
403.49	129.14
403.87	126.99
404.25	128.28
404.62	127.63
405.00	129.35
405.38	133.86
405.75	134.08
406.13	134.51
406.51	134.51
406.89	135.37
407.26	136.01
407.64	142.23
408.02	147.16
408.39	149.74
408.77	159.16
409.15	158.94
409.52	150.59
409.90	152.95
410.28	151.02
410.65	155.09
411.03	164.08
411.41	172.84
411.78	170.92
412.16	173.70
412.54	177.54
412.91	171.56
413.29	176.69
413.66	182.88
414.04	181.81
414.42	179.89
414.79	183.30
415.17	191.83
415.54	190.98
415.92	190.13
416.30	188.85
416.67	197.58
417.05	194.81
417.42	183.73
417.80	193.96
418.18	191.62
418.55	191.62
418.93	192.04
419.30	197.16
419.68	195.24
420.05	200.57
420.43	199.71
420.80	220.98
421.18	220.13
421.55	213.97
421.93	214.60
422.30	213.97
422.68	213.12
423.06	211.63
423.43	216.94
423.81	217.15
424.18	227.35
424.56	232.01
424.93	227.98
425.30	223.95
425.68	229.47
426.05	238.16
426.43	236.47
426.80	223.53
427.18	235.83
427.55	223.53
427.93	236.47
428.30	238.38
428.68	229.68
429.05	222.68
429.43	218.43
429.80	212.27
430.17	207.59
430.55	202.91
430.92	203.76
431.30	228.62
431.67	256.79
432.04	253.41
432.42	265.67
432.79	276.65
433.17	289.09
433.54	272.43
433.91	271.59
434.29	273.28
434.66	286.78
435.03	294.36
435.41	301.10
435.78	304.88
436.16	318.76
436.53	317.92
436.90	321.70
437.28	312.03
437.65	309.93
438.02	306.99
438.40	298.78
438.77	316.24
439.14	325.06
439.52	322.33
439.89	327.99
440.26	323.59
440.63	339.32
441.01	346.23
441.38	356.28
441.75	365.06
442.13	368.61
442.50	361.30
442.87	365.48
443.24	363.60
443.62	368.61
443.99	378.43
444.36	378.22
444.73	370.08
445.11	369.45
445.48	358.79
445.85	371.12
446.22	379.05
446.60	387.81
446.97	402.61
447.34	401.36
447.71	402.61
448.09	417.17
448.46	396.99
448.83	427.77
449.20	391.36
449.57	412.18
449.95	427.77
450.32	430.05
450.69	443.33
451.06	439.81
451.43	458.25
451.80	441.88
452.18	419.67
452.55	412.60
452.92	424.03
453.29	426.94
453.66	427.14
454.03	440.63
454.40	459.28
454.78	443.12
455.15	453.90
455.52	451.83
455.89	458.46
456.26	461.15
456.63	463.01
457.00	458.66
457.37	460.94
457.74	465.70
458.12	471.08
458.49	452.66
458.86	455.56
459.23	474.18
459.60	456.80
459.97	469.63
460.34	470.46
460.71	486.16
461.08	502.67
461.45	486.37
461.82	498.34
462.19	506.79
462.56	492.77
462.93	499.99
463.30	485.33
463.67	473.76
464.04	489.88
464.41	490.50
464.78	483.68
465.15	488.43
465.52	491.53
465.89	503.70
466.26	500.19
466.63	477.49
467.00	502.25
467.37	503.28
467.74	518.53
468.11	505.35
468.48	505.76
468.85	519.97
469.22	528.40
469.59	519.56
469.96	519.56
470.33	516.67
470.70	516.06
471.07	552.23
471.44	536.21
471.81	544.02
472.18	551.41
472.55	547.92
472.91	566.79
473.28	538.27
473.65	557.98
474.02	560.85
474.39	579.69
474.76	586.65
475.13	605.86
475.50	595.64
475.87	594.42
476.23	609.33
476.60	604.22
476.97	597.89
477.34	621.37
477.71	618.92
478.08	611.37
478.45	621.98
478.81	637.26
479.18	643.98
479.55	654.15
479.92	653.94
480.29	673.85
480.65	663.70
481.02	671.01
481.39	653.33
481.76	689.06
482.13	694.33
482.49	688.45
482.86	685.21
483.23	698.38
483.60	695.75
483.97	681.15
484.33	687.64
484.70	688.45
485.07	688.86
485.44	657.19
485.80	629.31
486.17	611.78
486.54	621.77
486.91	635.43
487.27	648.45
487.64	673.04
488.01	698.99
488.38	699.19
488.74	701.62
489.11	708.50
489.48	717.40
489.84	738.62
490.21	745.88
490.58	745.48
490.94	741.65
491.31	724.08
491.68	725.29
492.04	711.34
492.41	718.01
492.78	737.00
493.14	737.61
493.51	737.20
493.88	736.40
494.24	754.55
494.61	761.41
494.98	758.79
495.34	763.02
495.71	765.23
496.08	757.98
496.44	770.07
496.81	766.64
497.17	771.48
497.54	759.79
497.91	744.87
498.27	749.31
498.64	740.23
499.00	750.92
499.37	754.76
499.74	745.88
500.10	733.97
500.47	727.31
500.83	726.10
501.20	708.91
501.56	716.60
501.93	712.55
502.30	718.01
502.66	726.70
503.03	732.16
503.39	723.27
503.76	710.12
504.12	706.68
504.49	717.20
504.85	728.93
505.22	741.04
505.58	742.45
505.95	756.57
506.31	751.33
506.68	745.28
507.04	744.67
507.41	726.50
507.77	720.44
508.14	726.70
508.50	732.76
508.87	743.26
509.23	742.25
509.59	739.63
509.96	737.20
510.32	731.75
510.69	744.27
511.05	741.04
511.42	756.97
511.78	754.55
512.15	746.29
512.51	741.04
512.87	743.26
513.24	726.10
513.60	724.08
513.97	723.67
514.33	715.79
514.69	717.61
515.06	722.26
515.42	726.50
515.79	716.80
516.15	699.19
516.51	674.05
516.88	650.28
517.24	637.46
517.60	663.49
517.97	653.54
518.33	650.08
518.69	659.23
519.06	676.08
519.42	687.44
519.78	697.77
520.15	710.12
520.51	712.55
520.87	712.55
521.24	724.68
521.60	717.61
521.96	722.46
522.33	714.98
522.69	710.73
523.05	700.20
523.41	721.85
523.78	730.14
524.14	730.14
524.50	736.80
524.86	735.39
525.23	735.19
525.59	724.68
525.95	706.89
526.32	680.55
526.68	666.34
527.04	666.74
527.40	693.32
527.76	697.37
528.13	708.71
528.49	723.47
528.85	731.55
529.21	730.14
529.57	738.01
529.94	726.90
530.30	732.96
530.66	739.83
531.02	745.48
531.38	736.80
531.75	729.73
532.11	713.76
532.47	701.82
532.83	701.01
533.19	699.80
533.55	710.12
533.92	711.94
534.28	711.34
534.64	714.17
535.00	721.85
535.36	729.73
535.72	729.73
536.08	726.50
536.44	723.07
536.81	716.19
537.17	712.55
537.53	719.63
537.89	715.99
538.25	726.50
538.61	710.53
538.97	713.56
539.33	698.79
539.69	692.30
540.05	679.73
540.41	681.15
540.78	674.05
541.14	677.30
541.50	682.17
541.86	685.62
542.22	688.66
542.58	690.48
542.94	687.44
543.30	678.72
543.66	686.43
544.02	693.32
544.38	688.86
544.74	690.28
545.10	693.32
545.46	690.48
545.82	685.82
546.18	687.44
546.54	688.45
546.90	687.44
547.26	678.52
547.62	676.08
547.98	674.46
548.34	679.53
548.70	682.57
549.06	675.68
549.42	686.63
549.78	678.92
550.13	686.83
550.49	684.80
550.85	677.30
551.21	670.40
551.57	674.26
551.93	675.07
552.29	678.72
552.65	672.23
553.01	669.79
553.37	672.63
553.73	671.82
554.09	668.57
554.44	673.44
554.80	681.15
555.16	677.10
555.52	664.51
555.88	659.84
556.24	660.65
556.60	652.72
556.95	644.79
557.31	644.79
557.67	636.85
558.03	638.28
558.39	634.00
558.75	622.59
559.10	624.02
559.46	616.67
559.82	617.90
560.18	635.83
560.54	636.65
560.90	639.70
561.25	626.26
561.61	625.85
561.97	627.48
562.33	629.72
562.68	631.35
563.04	633.39
563.40	628.70
563.76	627.07
564.12	625.65
564.47	627.07
564.83	621.57
565.19	621.16
565.55	620.55
565.90	615.45
566.26	609.53
566.62	608.92
566.97	615.45
567.33	613.82
567.69	613.21
568.05	610.35
568.40	599.32
568.76	608.72
569.12	596.67
569.47	589.51
569.83	596.05
570.19	589.51
570.54	581.33
570.90	580.51
571.26	586.44
571.61	586.65
571.97	585.01
572.33	599.53
572.68	598.30
573.04	598.91
573.40	600.14
573.75	590.74
574.11	597.07
574.47	588.69
574.82	587.06
575.18	578.46
575.53	583.58
575.89	577.64
576.25	583.38
576.60	582.15
576.96	583.58
577.31	578.46
577.67	576.01
578.03	576.42
578.38	565.97
578.74	567.40
579.09	577.24
579.45	579.08
579.80	585.83
580.16	580.51
580.51	579.69
580.87	580.92
581.23	581.33
581.58	586.44
581.94	595.03
582.29	588.49
582.65	592.78
583.00	590.12
583.36	585.63
583.71	591.56
584.07	585.83
584.42	581.94
584.78	585.83
585.13	573.96
585.49	571.09
585.84	561.05
586.20	566.58
586.55	565.97
586.91	564.74
587.26	558.80
587.61	550.18
587.97	544.02
588.32	522.23
588.68	500.40
589.03	475.00
589.39	472.32
589.74	470.66
590.09	476.45
590.45	484.92
590.80	492.97
591.16	506.58
591.51	498.13
591.86	492.35
592.22	504.31
592.57	501.22
592.93	508.85
593.28	510.08
593.63	503.28
593.99	502.25
594.34	493.80
594.69	489.67
595.05	494.83
595.40	493.80
595.76	498.95
596.11	503.70
596.46	500.19
596.82	503.70
597.17	506.17
597.52	504.93
597.87	502.46
598.23	505.14
598.58	499.37
598.93	503.70
599.29	514.20
599.64	503.28
599.99	506.38
600.35	509.05
600.70	511.73
601.05	506.99
601.40	494.42
601.76	504.11
602.11	492.15
602.46	506.99
602.81	500.81
603.17	509.88
603.52	512.56
603.87	514.82
604.22	510.29
604.58	506.79
604.93	514.20
605.28	504.73
605.63	510.50
605.98	511.53
606.34	503.49
606.69	504.52
607.04	504.73
607.39	495.45
607.74	497.30
608.10	495.04
608.45	500.81
608.80	486.16
609.15	493.59
609.50	489.46
609.85	484.30
610.21	484.10
610.56	490.29
610.91	489.67
611.26	488.43
611.61	483.06
611.96	483.48
612.31	479.96
612.67	479.76
613.02	481.62
613.37	473.97
613.72	469.42
614.07	473.35
614.42	470.25
614.77	480.17
615.12	470.46
615.47	464.66
615.82	460.94
616.17	457.21
616.53	453.69
616.88	458.66
617.23	457.83
617.58	462.80
617.93	466.53
618.28	463.84
618.63	465.91
618.98	465.29
619.33	463.63
619.68	464.66
620.03	470.87
620.38	461.97
620.73	463.63
621.08	458.04
621.43	460.53
621.78	464.25
622.13	459.28
622.48	457.42
622.83	452.45
623.18	453.90
623.53	446.44
623.88	449.55
624.23	440.22
624.58	444.37
624.93	438.98
625.28	440.43
625.63	441.26
625.98	439.39
626.32	437.11
626.67	434.20
627.02	439.39
627.37	428.81
627.72	425.07
628.07	416.96
628.42	426.94
628.77	419.46
629.12	420.08
629.47	417.17
629.82	418.21
630.16	421.74
630.51	418.00
630.86	424.24
631.21	413.01
631.56	412.60
631.91	414.26
632.26	415.09
632.60	416.96
632.95	421.33
633.30	413.64
633.65	416.76
634.00	421.12
634.35	421.33
634.69	417.17
635.04	415.51
635.39	424.86
635.74	418.00
636.09	411.76
636.43	421.12
636.78	415.51
637.13	411.76
637.48	413.84
637.83	420.08
638.17	418.42
638.52	417.59
638.87	412.80
639.22	412.80
639.56	411.14
639.91	408.23
640.26	409.48
640.61	403.23
640.95	398.03
641.30	401.98
641.65	398.65
642.00	404.69
642.34	403.02
642.69	394.69
643.04	398.03
643.38	395.53
643.73	394.90
644.08	394.90
644.43	387.40
644.77	387.61
645.12	385.31
645.47	380.72
645.81	379.47
646.16	373.21
646.51	373.42
646.85	368.40
647.20	356.70
647.54	355.23
647.89	353.35
648.24	347.49
648.58	349.16
648.93	346.44
649.28	341.83
649.62	346.23
649.97	352.72
650.31	353.56
650.66	351.88
651.01	348.74
651.35	350.21
651.70	345.18
652.04	350.00
652.39	350.42
652.74	350.84
653.08	351.67
653.43	346.86
653.77	351.67
654.12	350.42
654.46	345.60
654.81	340.16
655.15	329.25
655.50	313.71
655.85	304.46
656.19	294.78
656.54	297.52
656.88	303.62
657.23	311.82
657.57	317.92
657.92	323.17
658.26	327.36
658.61	329.04
658.95	332.61
659.30	329.46
659.64	331.14
659.98	335.13
660.33	339.11
660.67	335.96
661.02	330.30
661.36	338.69
661.71	335.75
662.05	343.51
662.40	340.37
662.74	339.11
663.09	337.43
663.43	330.51
663.77	337.85
664.12	332.40
664.46	329.04
664.81	324.85
665.15	330.09
665.49	330.30
665.84	323.80
666.18	325.48
666.53	325.48
666.87	327.78
667.21	324.01
667.56	319.39
667.90	323.80
668.24	319.39
668.59	318.76
668.93	320.23
669.27	319.81
669.62	318.13
669.96	322.75
670.30	322.75
670.65	323.80
670.99	310.98
671.33	311.40
671.68	314.77
672.02	313.29
672.36	308.88
672.71	311.40
673.05	308.88
673.39	307.83
673.73	312.24
674.08	304.46
674.42	309.09
674.76	305.30
675.11	305.30
675.45	302.57
675.79	306.57
676.13	303.41
676.48	301.73
676.82	302.57
677.16	298.78
677.50	299.41
677.84	299.20
678.19	298.15
678.53	300.89
678.87	299.62
679.21	297.73
679.55	288.46
679.90	297.10
680.24	294.36
680.58	290.99
680.92	290.99
681.26	290.78
681.61	294.78
681.95	289.94
682.29	291.62
682.63	290.36
682.97	285.51
683.31	284.04
683.65	278.13
684.00	285.09
684.34	277.71
684.68	279.18
685.02	277.50
685.36	281.93
685.70	273.28
686.04	263.98
686.38	247.70
686.73	225.22
687.07	208.23
687.41	209.93
687.75	215.03
688.09	218.22
688.43	210.78
688.77	222.25
689.11	217.15
689.45	218.00
689.79	219.07
690.13	226.50
690.47	230.95
690.81	232.01
691.15	234.77
691.49	232.01
691.83	237.74
692.17	231.59
692.51	229.89
692.85	223.10
693.19	223.95
693.53	223.10
693.87	219.49
694.21	218.00
694.55	220.55
694.89	213.54
695.23	215.24
695.57	213.97
695.91	216.30
696.25	230.74
696.59	233.29
696.93	237.95
697.27	238.16
697.61	232.23
697.95	229.47
698.29	225.44
698.63	222.46
698.97	216.30
699.31	216.09
699.65	216.30
699.99	216.30
700.32	213.54
700.66	209.71
701.00	209.71
701.34	211.42
701.68	209.29
702.02	204.40
702.36	206.10
702.70	209.93
703.04	213.12
703.37	211.84
703.71	210.35
704.05	212.69
704.39	220.34
704.73	213.54
705.07	217.15
705.40	211.20
705.74	210.14
706.08	215.03
706.42	212.69
706.76	214.60
707.10	210.78
707.43	213.97
707.77	212.90
708.11	216.73
708.45	207.16
708.78	211.20
709.12	211.20
709.46	209.71
709.80	212.05
710.14	211.63
710.47	209.50
710.81	207.59
711.15	207.80
711.49	208.01
711.82	208.44
712.16	206.95
712.50	207.16
712.83	207.80
713.17	200.57
713.51	203.55
713.85	200.14
714.18	195.03
714.52	194.81
714.86	192.47
715.19	189.91
715.53	186.93
715.87	180.53
716.20	174.12
716.54	159.37
716.88	148.24
717.21	145.66
717.55	137.51
717.89	126.56
718.22	124.41
718.56	124.41
718.90	116.67
719.23	117.10
719.57	116.02
719.91	113.87
720.24	114.08
720.58	128.06
720.91	131.29
721.25	140.09
721.59	146.52
721.92	153.16
722.26	154.02
722.59	151.88
722.93	145.66
723.27	137.51
723.60	133.86
723.94	131.07
724.27	129.78
724.61	126.56
724.94	126.35
725.28	124.20
725.61	124.63
725.95	123.34
726.28	129.35
726.62	126.35
726.96	128.06
727.29	122.69
727.63	121.83
727.96	126.99
728.30	127.42
728.63	125.70
728.97	125.06
729.30	122.48
729.63	125.27
729.97	126.13
730.30	127.63
730.64	123.55
730.97	125.27
731.31	131.07
731.64	132.79
731.98	135.37
732.31	140.52
732.65	143.52
732.98	142.02
733.31	148.45
733.65	153.38
733.98	152.73
734.32	159.16
734.65	155.52
734.98	155.73
735.32	152.52
735.65	157.87
735.99	151.88
736.32	149.95
736.65	149.09
736.99	154.66
737.32	155.73
737.66	154.88
737.99	154.45
738.32	152.52
738.66	154.02
738.99	157.66
739.32	155.30
739.66	150.81
739.99	154.66
740.32	157.66
740.66	156.80
740.99	153.59
741.32	160.44
741.65	154.66
741.99	158.73
742.32	157.87
742.65	156.16
742.99	162.58
743.32	158.94
743.65	163.01
743.98	163.22
744.32	163.01
744.65	158.09
744.98	155.95
745.32	160.23
745.65	163.01
745.98	160.87
746.31	158.51
746.64	157.87
746.98	157.44
747.31	161.51
747.64	158.73
747.97	158.51
748.31	161.51
748.64	155.30
748.97	155.09
749.30	156.59
749.63	156.16
749.96	155.09
750.30	153.38
750.63	154.66
750.96	156.37
751.29	154.45
751.62	152.95
751.95	152.31
752.29	150.16
752.62	152.31
752.95	155.09
753.28	151.23
753.61	151.66
753.94	152.31
754.27	154.23
754.60	152.52
754.94	149.09
755.27	147.16
755.60	147.81
755.93	146.73
756.26	151.23
756.59	144.38
756.92	148.24
757.25	142.02
757.58	146.73
757.91	143.95
758.24	142.88
758.57	139.01
758.90	128.71
759.24	114.52
759.57	92.09
759.90	70.25
760.23	56.16
760.56	44.43
760.89	42.47
761.22	43.12
761.55	49.21
761.88	53.99
762.21	51.60
762.54	49.21
762.87	50.95
763.20	49.21
763.53	52.03
763.86	52.25
764.19	56.38
764.52	58.11
764.85	64.83
765.17	71.77
765.50	75.02
765.83	79.99
766.16	87.34
766.49	92.96
766.82	100.94
767.15	102.67
767.48	106.55
767.81	109.78
768.14	117.74
768.47	118.17
768.80	116.02
769.13	121.83
769.45	122.05
769.78	121.62
770.11	124.84
770.44	123.12
770.77	122.05
771.10	122.05
771.43	123.55
771.75	123.77
772.08	124.84
772.41	123.34
772.74	120.97
773.07	123.98
773.40	123.12
773.73	121.19
774.05	123.34
774.38	118.60
774.71	122.69
775.04	120.76
775.37	117.74
775.69	117.10
776.02	116.88
776.35	118.39
776.68	119.03
777.00	114.73
777.33	113.65
777.66	113.65
777.99	114.95
778.32	111.72
778.64	114.08
778.97	111.93
779.30	111.50
779.62	113.44
779.95	110.42
780.28	111.93
780.61	107.84
780.93	107.41
781.26	109.35
781.59	108.05
781.92	107.84
782.24	106.55
782.57	107.62
782.90	107.62
783.22	103.96
783.55	103.53
783.88	106.12
784.20	106.33
784.53	105.25
784.86	103.74
785.18	102.45
785.51	101.80
785.84	103.10
786.16	102.67
786.49	100.94
786.81	97.27
787.14	97.92
787.47	97.27
787.79	93.82
788.12	98.35
788.44	92.74
788.77	93.82
789.10	94.47
789.42	93.17
789.75	90.37
790.07	86.69
790.40	85.61
790.73	87.34
791.05	89.29
791.38	88.64
791.70	90.37
792.03	86.05
792.35	86.05
792.68	85.83
793.00	89.07
793.33	88.64
793.65	87.99
793.98	86.48
794.30	84.53
794.63	87.99
794.95	86.05
795.28	87.13
795.60	84.96
795.93	83.02
796.25	83.24
796.58	82.15
796.90	85.61
797.23	85.61
797.55	81.29
797.88	84.10
798.20	84.10
798.53	87.99
798.85	82.37
799.17	83.02
799.50	80.42
799.82	79.34
800.15	78.69
800.47	78.91
800.80	79.13
801.12	77.18
801.44	76.53
801.77	78.26
802.09	76.10
802.42	73.93
802.74	74.37
803.06	76.31
803.39	73.93
803.71	74.37
804.03	73.28
804.36	73.07
804.68	76.96
805.00	79.13
805.33	72.85
805.65	75.45
805.97	75.88
806.30	74.58
806.62	77.18
806.94	73.28
807.27	76.10
807.59	74.15
807.91	71.98
808.24	74.80
808.56	72.63
808.88	70.04
809.21	68.74
809.53	71.12
809.85	66.57
810.17	66.79
810.50	69.17
810.82	65.70
811.14	64.83
811.46	66.14
811.79	62.67
812.11	59.20
812.43	60.06
812.75	56.38
813.07	56.16
813.40	55.72
813.72	53.12
814.04	51.82
814.36	50.73
814.69	46.60
815.01	46.17
815.33	43.34
815.65	44.21
815.97	42.04
816.29	42.91
816.62	45.95
816.94	44.21
817.26	41.38
817.58	40.95
817.90	44.21
818.22	43.34
818.54	40.30
818.87	42.04
819.19	42.47
819.51	43.12
819.83	42.91
820.15	46.82
820.47	44.86
820.79	48.34
821.11	47.69
821.43	49.21
821.76	46.82
822.08	45.08
822.40	39.86
822.72	39.86
823.04	37.68
823.36	37.25
823.68	39.43
824.00	40.51
824.32	44.65
824.64	44.86
824.96	45.30
825.28	47.91
825.60	49.43
825.92	49.21
826.24	45.52
826.56	48.34
826.88	48.12
827.20	45.73
827.52	45.30
827.84	43.56
828.16	44.43
828.48	47.04
828.80	41.60
829.12	44.86
829.44	42.47
829.76	42.91
830.08	42.47
830.40	44.21
830.72	43.78
831.04	45.08
831.36	45.52
831.68	43.78
832.00	44.21
832.31	43.34
832.63	42.47
832.95	43.34
833.27	39.43
833.59	43.34
833.91	43.12
834.23	43.12
834.55	45.52
834.87	45.52
835.19	44.65
835.50	45.95
835.82	47.91
836.14	48.56
836.46	46.60
836.78	45.52
837.10	47.69
837.41	50.30
837.73	49.43
838.05	46.17
838.37	47.47
838.69	48.34
839.01	47.47
839.32	50.73
839.64	49.21
839.96	46.17
840.28	47.25
840.60	47.25
840.91	45.73
841.23	50.73
841.55	46.60
841.87	45.73
842.18	47.47
842.50	49.64
842.82	47.47
843.14	45.95
843.45	49.86
843.77	48.99
844.09	48.78
844.41	45.95
844.72	46.38
845.04	46.60
845.36	47.69
845.67	47.47
845.99	47.04
846.31	48.12
846.63	47.91
846.94	46.17
847.26	47.69
847.58	48.34
847.89	47.47
848.21	45.52
848.53	46.82
848.84	45.30
849.16	47.47
849.48	47.25
849.79	45.30
850.11	45.08
850.42	43.78
850.74	43.34
851.06	42.47
851.37	44.65
851.69	43.99
852.00	46.60
852.32	43.56
852.64	43.12
852.95	42.47
853.27	42.69
853.58	42.47
853.90	41.82
854.22	37.68
854.53	39.64
854.85	36.81
855.16	38.77
855.48	40.95
855.79	38.77
856.11	43.78
856.42	41.38
856.74	42.47
857.05	43.56
857.37	41.82
857.68	44.21
858.00	43.34
858.31	40.73
858.63	43.99
858.94	42.25
859.26	42.25
859.57	44.43
859.89	42.47
860.20	42.47
860.52	43.78
860.83	40.51
861.15	42.47
861.46	40.95
861.78	41.82
862.09	40.30
862.41	39.21
862.72	39.86
863.03	38.56
863.35	41.17
863.66	41.38
863.98	39.86
864.29	37.90
864.60	38.56
864.92	39.86
865.23	39.43
865.55	35.94
865.86	38.12
866.17	37.47
866.49	35.51
866.80	33.98
867.11	34.85
867.43	35.51
867.74	37.25
868.06	36.60
868.37	37.68
868.68	35.94
869.00	35.73
869.31	36.60
869.62	36.81
869.93	38.12
870.25	38.56
870.56	38.34
870.87	35.73
871.19	37.68
871.50	37.90
871.81	37.03
872.13	36.60
872.44	34.20
872.75	34.20
873.06	36.16
873.38	35.94
873.69	37.68
874.00	35.73
874.31	35.07
874.63	36.38
874.94	34.64
875.25	36.38
875.56	34.85
875.87	34.85
876.19	31.81
876.50	32.89
876.81	30.28
877.12	33.33
877.43	31.81
877.75	35.73
878.06	32.24
878.37	32.46
878.68	33.77
878.99	32.89
879.30	32.68
879.62	32.46
879.93	31.37
880.24	31.37
880.55	31.37
880.86	31.59
881.17	29.19
881.48	31.15
881.80	30.06
882.11	28.32
882.42	31.37
882.73	28.32
883.04	27.23
883.35	31.59
883.66	27.67
883.97	30.72
884.28	30.93
884.59	29.63
884.90	28.97
885.21	29.41
885.53	28.76
885.84	28.76
886.15	29.84
886.46	28.54
886.77	26.79
887.08	27.45
887.39	26.58
887.70	28.54
888.01	26.14
888.32	27.45
888.63	27.67
888.94	25.92
889.25	26.58
889.56	25.70
889.87	27.23
890.18	27.45
890.49	26.58
890.80	28.97
891.11	27.88
891.42	26.14
891.73	26.79
892.04	25.49
892.34	25.92
892.65	26.58
892.96	24.61
893.27	25.27
893.58	25.27
893.89	26.14
894.20	25.49
894.51	25.92
894.82	20.69
895.13	23.09
895.44	20.47
895.74	19.16
896.05	17.63
896.36	18.50
896.67	18.72
896.98	18.50
897.29	19.38
897.60	18.72
897.91	19.16
898.21	15.67
898.52	16.54
898.83	16.54
899.14	16.10
899.45	16.10
899.76	14.79
900.06	15.67
900.37	15.01
900.68	14.79
900.99	15.23
901.30	14.79
901.60	14.14
901.91	17.41
902.22	15.88
902.53	15.45
902.83	14.57
903.14	15.01
903.45	16.32
903.76	18.72
904.06	17.63
904.37	18.72
904.68	17.63
904.99	18.72
905.29	18.07
905.60	18.07
905.91	14.79
906.22	15.23
906.52	17.63
906.83	16.98
907.14	15.88
907.44	14.57
907.75	14.14
908.06	15.45
908.36	13.92
908.67	14.36
908.98	14.14
909.28	13.48
909.59	12.83
909.90	14.57
910.20	11.73
910.51	12.61
910.82	11.95
911.12	12.61
911.43	12.61
911.73	13.26
912.04	11.73
912.35	13.26
912.65	13.92
912.96	12.61
913.26	12.83
913.57	11.08
913.88	12.17
914.18	11.73
914.49	12.39
914.79	10.64
915.10	9.55
915.40	11.08
915.71	10.20
916.02	11.08
916.32	11.08
916.63	11.08
916.93	12.61
917.24	12.61
917.54	11.52
917.85	9.99
918.15	10.64
918.46	10.42
918.76	13.92
919.07	13.70
919.37	11.30
919.68	13.04
919.98	12.39
920.29	11.73
920.59	12.39
920.90	12.17
921.20	13.26
921.50	12.83
921.81	13.04
922.11	12.39
922.42	13.70
922.72	12.39
923.03	11.95
923.33	12.61
923.63	12.61
923.94	12.83
924.24	11.52
924.55	11.30
924.85	9.99
925.15	7.80
925.46	11.08
925.76	11.52
926.07	10.64
926.37	9.11
926.67	9.77
926.98	9.77
927.28	10.86
927.58	10.64
927.89	11.08
928.19	10.86
928.49	10.86
928.80	9.33
929.10	8.24
929.40	8.89
929.71	8.89
930.01	7.36
930.31	6.92
930.62	7.80
930.92	8.45
931.22	7.80
931.52	6.71
931.83	6.27
932.13	7.58
932.43	7.36
932.73	4.74
933.04	5.39
933.34	5.17
933.64	4.52
933.94	2.77
934.25	3.42
934.55	2.55
934.85	2.33
935.15	3.42
935.45	3.21
935.76	5.17
936.06	5.39
936.36	3.42
936.66	3.21
936.96	3.86
937.27	2.99
937.57	3.64
937.87	5.61
938.17	4.74
938.47	3.86
938.77	3.64
939.08	3.64
939.38	5.39
939.68	4.52
939.98	4.08
940.28	5.61
940.58	5.83
940.88	5.17
941.18	5.61
941.49	5.61
941.79	4.74
942.09	4.08
942.39	4.96
942.69	6.27
942.99	4.74
943.29	4.08
943.59	4.52
943.89	5.39
944.19	5.39
944.49	4.08
944.79	4.30
945.09	2.99
945.39	3.42
945.70	3.64
946.00	4.96
946.30	4.08
946.60	3.86
946.90	6.27
947.20	5.61
947.50	2.99
947.80	4.08
948.10	5.61
948.40	5.17
948.70	5.17
949.00	4.74
949.30	5.39
949.59	5.39
949.89	5.17
950.19	6.05
950.49	4.30
950.79	4.52
951.09	3.42
951.39	3.42
951.69	4.08
951.99	3.86
952.29	4.08
952.59	3.21
952.89	4.52
953.19	3.42
953.49	5.17
953.78	4.30
954.08	5.39
954.38	4.52
954.68	6.27
954.98	6.27
955.28	3.64
955.58	4.74
955.88	3.42
956.17	3.86
956.47	5.17
956.77	5.17
957.07	4.08
957.37	4.08
957.67	5.39
957.96	4.96
958.26	5.39
958.56	5.39
958.86	6.27
959.16	6.71
959.45	3.64
959.75	3.86
960.05	4.52
960.35	4.96
960.64	4.30
960.94	3.86
961.24	5.39
961.54	5.39
961.83	4.96
962.13	3.86
962.43	5.83
962.73	6.05
963.02	7.58
963.32	6.71
963.62	5.17
963.92	5.61
964.21	6.49
964.51	5.17
964.81	5.39
965.10	3.64
965.40	3.64
965.70	4.52
965.99	4.52
966.29	5.61
966.59	4.52
966.88	2.99
967.18	5.83
967.48	4.96
967.77	4.74
968.07	6.27
968.37	4.30
968.66	5.83
968.96	6.71
969.25	7.58
969.55	6.92
969.85	5.83
970.14	6.05
970.44	6.49
970.73	5.17
971.03	5.83
971.33	8.02
971.62	6.27
971.92	6.71
972.21	5.61
972.51	7.80
972.80	7.14
973.10	6.05
973.40	7.14
973.69	5.39
973.99	5.83
974.28	5.17
974.58	5.39
974.87	4.74
975.17	6.49
975.46	5.61
975.76	5.17
976.05	4.52
976.35	4.30
976.64	3.86
976.94	4.96
977.23	4.74
977.53	4.30
977.82	6.05
978.11	5.39
978.41	6.27
978.70	5.39
979.00	4.52
979.29	4.74
979.59	6.05
979.88	3.21
980.18	5.39
980.47	6.49
980.76	6.05
981.06	5.61
981.35	4.74
981.65	3.86
981.94	6.05
982.23	6.71
982.53	5.17
982.82	6.05
983.11	6.05
983.41	7.36
983.70	6.27
984.00	5.61
984.29	4.96
984.58	3.42
984.88	3.42
985.17	5.39
985.46	5.61
985.76	6.71
986.05	4.52
986.34	5.83
986.63	7.80
986.93	6.05
987.22	6.27
987.51	5.83
987.81	6.27
988.10	5.39
988.39	4.52
988.68	4.52
988.98	3.86
989.27	4.74
989.56	4.96
989.85	4.08
990.15	4.30
990.44	4.08
990.73	4.30
991.02	3.86
991.32	4.30
991.61	5.17
991.90	3.86
992.19	4.74
992.48	6.71
992.78	6.49
993.07	4.52
993.36	4.30
993.65	5.39
993.94	3.86
994.23	6.05
994.53	6.27
994.82	5.17
995.11	4.96
995.40	5.17
995.69	5.17
995.98	5.61
996.27	4.96
996.57	4.96
996.86	6.05
997.15	5.17
997.44	4.96
997.73	6.05
998.02	6.27
998.31	5.83
998.60	6.05
998.89	5.61
999.18	4.74
999.48	5.61
999.77	4.08
1000.06	7.36
1000.35	5.61
1000.64	3.86
1000.93	4.96
1001.22	5.61
1001.51	4.96
1001.80	5.61
1002.09	2.99
1002.38	3.21
1002.67	5.39
1002.96	4.52
1003.25	3.21
1003.54	4.08
1003.83	3.86
1004.12	4.96
1004.41	5.83
1004.70	4.96
1004.99	4.74
1005.28	4.74
1005.57	5.61
1005.86	5.39
1006.15	3.86
1006.44	2.55
1006.72	3.42
1007.01	3.86
1007.30	3.42
1007.59	3.64
1007.88	4.74
1008.17	5.83
1008.46	6.49
1008.75	4.74
1009.04	5.39
1009.33	5.83
1009.62	4.52
1009.90	4.96
1010.19	4.08
1010.48	3.64
1010.77	4.96
1011.06	4.96
1011.35	4.74
1011.64	4.30
1011.92	3.64
1012.21	3.64
1012.50	4.30
1012.79	5.39
1013.08	5.83
1013.37	3.21
1013.65	3.42
1013.94	4.08
1014.23	3.21
1014.52	4.30
1014.80	3.42
1015.09	3.21
1015.38	2.99
1015.67	4.52
1015.96	4.08
1016.24	4.74
1016.53	4.74
1016.82	4.52
1017.11	3.42
1017.39	3.21
1017.68	3.86
1017.97	3.21
1018.25	5.17
1018.54	4.52
1018.83	5.17
1019.12	3.64
1019.40	4.30
1019.69	4.74
1019.98	3.42
1020.26	3.42
1020.55	3.86
1020.84	3.64
1021.12	4.08
1021.41	4.52
1021.70	3.64
1021.98	3.21
1022.27	3.86
1022.56	4.52
1022.84	2.77
1023.13	2.33
1023.42	2.33
1023.70	4.52
1023.99	3.42
1024.27	3.86
1024.56	5.61
1024.85	2.77
1025.13	3.64
1025.42	4.96
1025.70	4.74
1025.99	4.96
1026.27	5.61
1026.56	4.08
1026.85	4.74
1027.13	3.86
1027.42	3.64
1027.70	3.42
1027.99	2.33
1028.27	2.77
1028.56	4.30
1028.84	4.52
>>>>>End Processed Spectral Data<<<<<
