SpectraSuite Data File
++++++++++++++++++++++++++++++++++++
Date: Tue Jun 16 17:09:57 CEST 2015
User: root
Dark Spectrum Present: No
Reference Spectrum Present: No
Number of Sampled Component Spectra: 1
Spectrometers: USB2G14742
Integration Time (usec): 8000 (USB2G14742)
Spectra Averaged: 5 (USB2G14742)
Boxcar Smoothing: 0 (USB2G14742)
Correct for Electrical Dark: Yes (USB2G14742)
Strobe/Lamp Enabled: No (USB2G14742)
Correct for Detector Non-linearity: Yes (USB2G14742)
Correct for Stray Light: No (USB2G14742)
Number of Pixels in Processed Spectrum: 2048
>>>>>Begin Processed Spectral Data<<<<<
339.47	-7.83
339.86	-7.83
340.24	-7.18
340.63	-4.99
341.01	-3.67
341.39	-3.01
341.78	-3.01
342.16	-1.04
342.55	1.15
342.93	1.15
343.32	0.93
343.70	2.02
344.09	1.80
344.47	1.80
344.85	1.37
345.24	2.68
345.62	2.02
346.01	0.71
346.39	0.71
346.77	0.49
347.16	1.15
347.54	0.05
347.93	0.27
348.31	1.58
348.69	1.15
349.08	3.34
349.46	5.09
349.84	5.96
350.23	7.05
350.61	6.62
350.99	6.18
351.38	7.49
351.76	5.96
352.14	7.05
352.53	5.96
352.91	6.62
353.29	8.37
353.68	8.37
354.06	8.58
354.44	9.02
354.83	6.62
355.21	8.37
355.59	8.15
355.97	9.90
356.36	7.71
356.74	7.93
357.12	9.02
357.51	9.24
357.89	9.02
358.27	9.24
358.65	10.11
359.04	10.33
359.42	9.68
359.80	12.08
360.18	12.08
360.57	10.99
360.95	13.39
361.33	12.52
361.71	13.83
362.10	15.58
362.48	14.92
362.86	15.58
363.24	15.14
363.62	15.14
364.01	17.98
364.39	17.76
364.77	18.85
365.15	19.94
365.53	21.47
365.91	21.03
366.30	23.00
366.68	23.43
367.06	25.40
367.44	23.87
367.82	24.96
368.20	25.40
368.59	26.49
368.97	27.80
369.35	29.76
369.73	29.32
370.11	29.97
370.49	31.50
370.87	29.32
371.25	29.32
371.64	33.90
372.02	32.59
372.40	33.68
372.78	32.37
373.16	32.81
373.54	33.46
373.92	33.24
374.30	31.94
374.68	34.55
375.06	34.11
375.44	38.25
375.82	40.21
376.21	39.77
376.59	43.69
376.97	48.04
377.35	52.38
377.73	54.55
378.11	57.59
378.49	59.98
378.87	56.29
379.25	53.90
379.63	55.64
380.01	58.02
380.39	62.58
380.77	65.40
381.15	63.88
381.53	60.84
381.91	60.19
382.29	54.33
382.67	49.77
383.05	49.99
383.43	48.25
383.81	54.12
384.19	60.41
384.57	69.30
384.95	66.91
385.33	76.88
385.71	76.88
386.08	77.09
386.46	77.31
386.84	82.72
387.22	80.12
387.60	84.01
387.98	83.80
388.36	88.12
388.74	91.79
389.12	102.36
389.50	106.03
389.88	113.35
390.26	116.36
390.63	118.52
391.01	126.26
391.39	127.12
391.77	123.68
392.15	119.38
392.53	99.99
392.91	90.49
393.29	80.12
393.66	86.39
394.04	96.11
394.42	112.71
394.80	123.89
395.18	134.21
395.56	138.50
395.93	133.13
396.31	119.16
396.69	109.48
397.07	114.64
397.45	127.98
397.83	152.86
398.20	165.92
398.58	189.83
398.96	204.31
399.34	213.88
399.72	221.74
400.09	225.35
400.47	229.17
400.85	245.28
401.23	244.22
401.60	246.76
401.98	256.92
402.36	261.57
402.74	262.42
403.11	259.88
403.49	270.66
403.87	260.51
404.25	267.28
404.62	264.11
405.00	270.66
405.38	274.25
405.75	271.08
406.13	270.87
406.51	273.19
406.89	285.21
407.26	279.31
407.64	288.59
408.02	306.90
408.39	304.59
408.77	322.03
409.15	332.94
409.52	310.90
409.90	309.85
410.28	311.95
410.65	318.25
411.03	341.33
411.41	353.05
411.78	357.03
412.16	363.51
412.54	369.57
412.91	360.79
413.29	376.46
413.66	384.81
414.04	376.05
414.42	372.91
414.79	380.01
415.17	388.36
415.54	393.57
415.92	386.90
416.30	398.36
416.67	400.86
417.05	401.48
417.42	386.06
417.80	399.19
418.18	406.06
418.55	393.15
418.93	389.40
419.30	417.29
419.68	400.65
420.05	423.74
420.43	414.38
420.80	457.13
421.18	461.89
421.55	442.00
421.93	443.25
422.30	445.11
422.68	435.99
423.06	436.40
423.43	449.67
423.81	455.06
424.18	465.41
424.56	470.58
424.93	466.65
425.30	462.30
425.68	477.61
426.05	490.00
426.43	482.98
426.80	472.03
427.18	483.81
427.55	465.82
427.93	473.47
428.30	487.11
428.68	470.17
429.05	462.30
429.43	456.30
429.80	446.98
430.17	425.19
430.55	410.64
430.92	414.18
431.30	480.09
431.67	519.27
432.04	524.00
432.42	551.12
432.79	575.92
433.17	585.13
433.54	562.20
433.91	563.02
434.29	560.56
434.66	587.59
435.03	596.17
435.41	619.04
435.78	630.86
436.16	659.75
436.53	649.79
436.90	658.53
437.28	652.64
437.65	636.16
438.02	626.58
438.40	610.06
438.77	642.26
439.14	656.91
439.52	664.83
439.89	668.49
440.26	678.64
440.63	699.11
441.01	717.52
441.38	726.62
441.75	743.58
442.13	749.23
442.50	750.84
442.87	751.25
443.24	747.41
443.62	757.50
443.99	783.06
444.36	794.32
444.73	764.14
445.11	766.16
445.48	745.60
445.85	762.13
446.22	768.98
446.60	797.34
446.97	819.01
447.34	820.22
447.71	830.24
448.09	865.86
448.46	823.83
448.83	882.44
449.20	806.17
449.57	846.06
449.95	881.64
450.32	889.62
450.69	903.58
451.06	916.73
451.43	942.99
451.80	907.57
452.18	872.85
452.55	859.26
452.92	874.25
453.29	881.44
453.66	887.43
454.03	905.17
454.40	956.89
454.78	907.17
455.15	936.82
455.52	939.41
455.89	953.32
456.26	941.99
456.63	961.66
457.00	940.01
457.37	969.00
457.74	959.28
458.12	967.61
458.49	934.24
458.86	943.98
459.23	978.72
459.60	943.98
459.97	972.18
460.34	964.44
460.71	998.73
461.08	1032.36
461.45	1001.90
461.82	1022.68
462.19	1041.65
462.56	1022.08
462.93	1031.38
463.30	998.93
463.67	984.47
464.04	1021.49
464.41	1018.72
464.78	992.40
465.15	994.77
465.52	1010.02
465.89	1029.20
466.26	1030.39
466.63	993.58
467.00	1026.63
467.37	1037.90
467.74	1064.55
468.11	1041.06
468.48	1042.64
468.85	1084.26
469.22	1101.98
469.59	1077.56
469.96	1065.53
470.33	1071.64
470.70	1065.14
471.07	1118.31
471.44	1102.77
471.81	1133.45
472.18	1137.58
472.55	1138.56
472.91	1182.72
473.28	1112.41
473.65	1143.67
474.02	1162.52
474.39	1204.08
474.76	1214.85
475.13	1243.61
475.50	1242.83
475.87	1208.19
476.23	1249.28
476.60	1253.78
476.97	1228.55
477.34	1275.08
477.71	1284.06
478.08	1276.45
478.45	1286.02
478.81	1321.14
479.18	1328.55
479.55	1348.24
479.92	1356.04
480.29	1393.24
480.65	1368.51
481.02	1376.30
481.39	1356.43
481.76	1417.37
482.13	1434.88
482.49	1410.36
482.86	1408.03
483.23	1446.74
483.60	1440.91
483.97	1410.17
484.33	1413.09
484.70	1426.51
485.07	1416.01
485.44	1360.91
485.80	1296.36
486.17	1250.26
486.54	1287.38
486.91	1297.73
487.27	1330.11
487.64	1380.39
488.01	1439.55
488.38	1436.82
488.74	1456.66
489.11	1455.69
489.48	1478.04
489.84	1524.88
490.21	1527.40
490.58	1518.85
490.94	1518.46
491.31	1491.26
491.68	1496.31
492.04	1464.82
492.41	1485.04
492.78	1514.97
493.14	1528.18
493.51	1526.82
493.88	1533.81
494.24	1532.26
494.61	1565.67
494.98	1575.77
495.34	1568.78
495.71	1558.68
496.08	1561.01
496.44	1582.37
496.81	1580.43
497.17	1584.90
497.54	1567.03
497.91	1544.11
498.27	1539.45
498.64	1534.39
499.00	1535.37
499.37	1551.68
499.74	1532.06
500.10	1517.30
500.47	1510.69
500.83	1495.54
501.20	1471.05
501.56	1470.85
501.93	1471.63
502.30	1484.65
502.66	1501.95
503.03	1501.95
503.39	1480.96
503.76	1473.38
504.12	1463.07
504.49	1479.99
504.85	1510.69
505.22	1531.09
505.58	1537.11
505.95	1570.14
506.31	1549.16
506.68	1537.89
507.04	1533.62
507.41	1506.03
507.77	1504.86
508.14	1493.79
508.50	1521.77
508.87	1519.44
509.23	1535.75
509.59	1528.96
509.96	1530.12
510.32	1524.68
510.69	1536.73
511.05	1540.22
511.42	1539.64
511.78	1544.88
512.15	1538.47
512.51	1514.77
512.87	1519.44
513.24	1491.65
513.60	1493.59
513.97	1477.85
514.33	1473.38
514.69	1477.85
515.06	1488.93
515.42	1498.64
515.79	1474.74
516.15	1439.93
516.51	1387.79
516.88	1330.89
517.24	1321.53
517.60	1348.83
517.97	1346.88
518.33	1338.11
518.69	1362.27
519.06	1389.73
519.42	1421.07
519.78	1449.08
520.15	1459.38
520.51	1459.38
520.87	1465.21
521.24	1486.79
521.60	1494.37
521.96	1496.31
522.33	1474.35
522.69	1462.88
523.05	1448.69
523.41	1476.88
523.78	1505.06
524.14	1514.19
524.50	1516.33
524.86	1519.05
525.23	1506.03
525.59	1494.95
525.95	1471.24
526.32	1422.43
526.68	1396.16
527.04	1367.14
527.40	1404.72
527.76	1441.49
528.13	1459.58
528.49	1485.04
528.85	1503.11
529.21	1502.53
529.57	1511.08
529.94	1497.28
530.30	1522.54
530.66	1532.45
531.02	1542.55
531.38	1529.54
531.75	1522.93
532.11	1486.79
532.47	1457.24
532.83	1449.08
533.19	1451.80
533.55	1479.02
533.92	1467.35
534.28	1467.74
534.64	1485.24
535.00	1510.69
535.36	1510.11
535.72	1518.08
536.08	1503.11
536.44	1482.32
536.81	1471.82
537.17	1457.83
537.53	1485.82
537.89	1477.65
538.25	1484.26
538.61	1479.60
538.97	1454.13
539.33	1445.38
539.69	1437.02
540.05	1406.08
540.41	1408.81
540.78	1384.86
541.14	1409.59
541.50	1423.21
541.86	1422.04
542.22	1419.70
542.58	1408.42
542.94	1414.84
543.30	1405.69
543.66	1431.96
544.02	1424.76
544.38	1425.54
544.74	1423.01
545.10	1424.57
545.46	1416.40
545.82	1430.99
546.18	1417.95
546.54	1421.65
546.90	1415.42
547.26	1397.91
547.62	1398.88
547.98	1386.23
548.34	1400.24
548.70	1406.28
549.06	1398.69
549.42	1412.50
549.78	1410.17
550.13	1411.14
550.49	1399.27
550.85	1385.45
551.21	1394.99
551.57	1406.28
551.93	1396.74
552.29	1394.40
552.65	1376.10
553.01	1376.69
553.37	1385.45
553.73	1383.50
554.09	1386.62
554.44	1393.63
554.80	1391.48
555.16	1386.62
555.52	1376.88
555.88	1385.06
556.24	1356.43
556.60	1330.50
556.95	1335.18
557.31	1323.87
557.67	1319.39
558.03	1319.39
558.39	1302.22
558.75	1301.63
559.10	1295.19
559.46	1294.02
559.82	1279.38
560.18	1299.29
560.54	1312.56
560.90	1331.48
561.25	1304.56
561.61	1291.87
561.97	1295.97
562.33	1307.49
562.68	1307.88
563.04	1312.56
563.40	1303.39
563.76	1289.34
564.12	1293.83
564.47	1281.53
564.83	1297.93
565.19	1285.82
565.55	1272.93
565.90	1261.01
566.26	1261.99
566.62	1257.30
566.97	1268.44
567.33	1265.12
567.69	1268.05
568.05	1258.67
568.40	1230.31
568.76	1239.31
569.12	1231.09
569.47	1226.01
569.83	1221.11
570.19	1222.88
570.54	1201.53
570.90	1201.34
571.26	1201.92
571.61	1202.12
571.97	1222.48
572.33	1227.96
572.68	1236.18
573.04	1232.46
573.40	1219.35
573.75	1225.42
574.11	1225.22
574.47	1214.26
574.82	1215.24
575.18	1198.59
575.53	1207.80
575.89	1198.40
576.25	1201.73
576.60	1201.14
576.96	1197.03
577.31	1195.46
577.67	1194.09
578.03	1188.21
578.38	1180.17
578.74	1179.58
579.09	1179.39
579.45	1184.48
579.80	1201.73
580.16	1199.77
580.51	1199.57
580.87	1203.30
581.23	1199.18
581.58	1196.64
581.94	1208.58
582.29	1213.68
582.65	1205.45
583.00	1217.00
583.36	1212.11
583.71	1219.74
584.07	1203.30
584.42	1201.34
584.78	1197.81
585.13	1179.39
585.49	1168.01
585.84	1165.26
586.20	1172.52
586.55	1164.09
586.91	1162.12
587.26	1152.31
587.61	1134.24
587.97	1107.30
588.32	1073.42
588.68	1022.08
589.03	979.71
589.39	959.67
589.74	963.05
590.09	986.25
590.45	1010.61
590.80	1017.14
591.16	1023.47
591.51	1015.95
591.86	1020.90
592.22	1026.63
592.57	1036.91
592.93	1042.44
593.28	1042.64
593.63	1036.12
593.99	1033.15
594.34	1012.39
594.69	1010.22
595.05	1020.30
595.40	1016.15
595.76	1018.52
596.11	1036.12
596.46	1034.74
596.82	1039.08
597.17	1048.17
597.52	1031.77
597.87	1029.79
598.23	1035.33
598.58	1025.45
598.93	1041.85
599.29	1040.66
599.64	1038.29
599.99	1041.25
600.35	1039.28
600.70	1043.43
601.05	1031.18
601.40	1031.77
601.76	1027.03
602.11	1024.46
602.46	1037.50
602.81	1037.70
603.17	1052.11
603.52	1054.09
603.87	1038.69
604.22	1048.76
604.58	1035.72
604.93	1058.63
605.28	1044.22
605.63	1053.89
605.98	1034.74
606.34	1037.30
606.69	1027.23
607.04	1035.72
607.39	1026.04
607.74	1029.40
608.10	1016.35
608.45	1016.55
608.80	1013.98
609.15	1013.18
609.50	1013.38
609.85	1001.11
610.21	1002.30
610.56	1001.31
610.91	1008.24
611.26	1003.68
611.61	1000.52
611.96	985.66
612.31	993.78
612.67	985.86
613.02	985.86
613.37	968.01
613.72	966.42
614.07	968.21
614.42	973.76
614.77	966.22
615.12	970.79
615.47	955.50
615.82	950.34
616.17	930.66
616.53	935.43
616.88	944.97
617.23	934.04
617.58	943.78
617.93	956.50
618.28	956.89
618.63	959.87
618.98	945.77
619.33	957.29
619.68	957.29
620.03	962.25
620.38	960.86
620.73	961.26
621.08	948.95
621.43	947.36
621.78	951.13
622.13	944.18
622.48	936.03
622.83	935.63
623.18	925.49
623.53	930.26
623.88	917.92
624.23	912.35
624.58	909.96
624.93	899.99
625.28	901.79
625.63	892.61
625.98	896.40
626.32	903.38
626.67	900.19
627.02	890.02
627.37	878.85
627.72	858.47
628.07	859.86
628.42	864.86
628.77	860.86
629.12	864.46
629.47	859.26
629.82	850.46
630.16	860.66
630.51	859.06
630.86	867.86
631.21	859.46
631.56	854.67
631.91	843.86
632.26	858.67
632.60	856.27
632.95	855.47
633.30	852.87
633.65	867.26
634.00	851.26
634.35	862.06
634.69	863.06
635.04	865.46
635.39	870.06
635.74	851.66
636.09	840.66
636.43	849.46
636.78	854.87
637.13	844.66
637.48	860.06
637.83	857.87
638.17	850.46
638.52	858.27
638.87	844.86
639.22	843.86
639.56	835.45
639.91	829.44
640.26	835.05
640.61	827.24
640.95	823.83
641.30	823.23
641.65	812.19
642.00	813.60
642.34	811.59
642.69	815.00
643.04	812.39
643.38	803.16
643.73	803.56
644.08	807.18
644.43	800.55
644.77	794.52
645.12	787.69
645.47	780.65
645.81	764.95
646.16	763.34
646.51	756.89
646.85	744.19
647.20	719.14
647.54	730.06
647.89	721.57
648.24	717.73
648.58	715.10
648.93	703.16
649.28	703.16
649.62	705.59
649.97	716.92
650.31	722.98
650.66	727.43
651.01	719.95
651.35	714.29
651.70	704.17
652.04	710.85
652.39	707.01
652.74	715.50
653.08	716.72
653.43	718.74
653.77	721.97
654.12	719.55
654.46	702.35
654.81	687.76
655.15	678.43
655.50	646.94
655.85	623.73
656.19	604.96
656.54	597.40
656.88	612.72
657.23	625.77
657.57	651.22
657.92	657.92
658.26	666.66
658.61	673.36
658.95	680.67
659.30	682.69
659.64	683.10
659.98	691.01
660.33	687.56
660.67	684.92
661.02	690.80
661.36	694.65
661.71	687.76
662.05	695.67
662.40	686.95
662.74	686.75
663.09	682.90
663.43	683.51
663.77	670.93
664.12	682.49
664.46	666.25
664.81	671.94
665.15	669.71
665.49	669.30
665.84	665.65
666.18	666.25
666.53	659.55
666.87	660.77
667.21	664.02
667.56	661.79
667.90	656.50
668.24	657.92
668.59	652.44
668.93	661.58
669.27	660.16
669.62	648.78
669.96	647.96
670.30	648.57
670.65	646.33
670.99	638.60
671.33	639.41
671.68	637.79
672.02	632.49
672.36	629.84
672.71	630.66
673.05	631.27
673.39	634.32
673.73	628.01
674.08	616.18
674.42	633.31
674.76	622.30
675.11	616.39
675.45	621.49
675.79	616.80
676.13	616.59
676.48	610.88
676.82	613.53
677.16	614.55
677.50	610.06
677.84	606.59
678.19	616.80
678.53	608.23
678.87	602.92
679.21	603.12
679.55	599.85
679.90	595.56
680.24	601.69
680.58	600.26
680.92	589.63
681.26	593.52
681.61	588.00
681.95	588.81
682.29	583.70
682.63	586.57
682.97	585.95
683.31	578.38
683.65	576.95
684.00	574.70
684.34	568.14
684.68	568.96
685.02	572.85
685.36	567.94
685.70	555.84
686.04	547.02
686.38	509.59
686.73	455.47
687.07	426.85
687.41	426.44
687.75	427.68
688.09	431.84
688.43	442.62
688.77	440.34
689.11	441.79
689.45	443.25
689.79	454.64
690.13	458.99
690.47	461.06
690.81	470.79
691.15	474.09
691.49	478.43
691.83	474.71
692.17	468.72
692.51	474.51
692.85	458.79
693.19	454.85
693.53	452.99
693.87	442.21
694.21	442.62
694.55	449.46
694.89	445.53
695.23	447.19
695.57	444.91
695.91	454.02
696.25	473.89
696.59	472.03
696.93	478.02
697.27	477.19
697.61	472.03
697.95	469.96
698.29	467.89
698.63	452.37
698.97	453.19
699.31	446.77
699.65	445.53
699.99	442.42
700.32	435.16
700.66	432.04
701.00	429.97
701.34	425.61
701.68	426.02
702.02	421.04
702.36	425.81
702.70	430.17
703.04	438.06
703.37	437.44
703.71	436.82
704.05	444.49
704.39	447.60
704.73	442.21
705.07	443.04
705.40	436.19
705.74	440.34
706.08	435.57
706.42	435.57
706.76	435.99
707.10	435.57
707.43	434.33
707.77	435.57
708.11	431.84
708.45	437.44
708.78	428.31
709.12	436.82
709.46	434.33
709.80	429.14
710.14	433.29
710.47	432.46
710.81	433.70
711.15	429.34
711.49	431.84
711.82	424.15
712.16	424.98
712.50	423.74
712.83	422.49
713.17	418.33
713.51	422.91
713.85	414.59
714.18	406.48
714.52	407.10
714.86	399.82
715.19	399.61
715.53	396.07
715.87	385.85
716.20	362.26
716.54	334.83
716.88	312.16
717.21	295.33
717.55	281.21
717.89	269.81
718.22	259.46
718.56	250.57
718.90	239.77
719.23	244.22
719.57	235.96
719.91	237.44
720.24	239.56
720.58	260.94
720.91	275.72
721.25	293.43
721.59	309.00
721.92	313.21
722.26	316.15
722.59	317.62
722.93	302.69
723.27	294.27
723.60	276.14
723.94	270.87
724.27	266.01
724.61	259.04
724.94	263.05
725.28	257.34
725.61	254.38
725.95	264.53
726.28	265.59
726.62	260.94
726.96	257.55
727.29	260.51
727.63	256.71
727.96	258.82
728.30	267.49
728.63	261.78
728.97	260.30
729.30	255.65
729.63	264.74
729.97	264.11
730.30	266.01
730.64	258.61
730.97	261.78
731.31	267.91
731.64	276.99
731.98	289.64
732.31	289.22
732.65	303.12
732.98	306.69
733.31	314.26
733.65	324.13
733.98	326.44
734.32	328.12
734.65	322.03
734.98	322.66
735.32	322.45
735.65	323.92
735.99	323.08
736.32	308.79
736.65	317.20
736.99	324.34
737.32	324.76
737.66	320.77
737.99	327.91
738.32	320.14
738.66	325.60
738.99	319.93
739.32	322.24
739.66	325.18
739.99	336.30
740.32	328.75
740.66	335.46
740.99	334.83
741.32	330.85
741.65	331.89
741.99	338.18
742.32	336.72
742.65	332.73
742.99	345.52
743.32	344.05
743.65	343.63
743.98	337.14
744.32	338.18
744.65	342.38
744.98	329.38
745.32	346.15
745.65	337.77
745.98	340.28
746.31	339.02
746.64	340.70
746.98	339.02
747.31	339.86
747.64	333.99
747.97	335.88
748.31	333.78
748.64	333.57
748.97	339.44
749.30	333.99
749.63	327.07
749.96	327.70
750.30	324.13
750.63	327.49
750.96	326.23
751.29	329.17
751.62	328.12
751.95	325.81
752.29	321.82
752.62	319.72
752.95	321.82
753.28	324.76
753.61	327.07
753.94	325.18
754.27	318.67
754.60	319.51
754.94	321.82
755.27	313.42
755.60	319.30
755.93	312.58
756.26	319.51
756.59	315.10
756.92	315.10
757.25	310.90
757.58	307.53
757.91	309.43
758.24	303.75
758.57	295.33
758.90	263.26
759.24	230.66
759.57	187.48
759.90	137.43
760.23	108.83
760.56	92.87
760.89	82.07
761.22	86.61
761.55	103.87
761.88	107.97
762.21	104.52
762.54	105.60
762.87	100.21
763.20	100.42
763.53	104.73
763.86	112.49
764.19	115.72
764.52	122.82
764.85	135.49
765.17	146.43
765.50	160.35
765.83	166.34
766.16	179.80
766.49	195.58
766.82	209.84
767.15	217.07
767.48	228.53
767.81	235.32
768.14	242.95
768.47	247.40
768.80	248.88
769.13	252.05
769.45	260.94
769.78	259.25
770.11	263.90
770.44	264.95
770.77	261.36
771.10	264.32
771.43	258.40
771.75	258.82
772.08	259.46
772.41	258.40
772.74	262.42
773.07	259.88
773.40	263.69
773.73	260.09
774.05	257.55
774.38	255.44
774.71	253.96
775.04	248.88
775.37	248.67
775.69	254.38
776.02	251.42
776.35	249.73
776.68	244.43
777.00	248.46
777.33	244.22
777.66	244.65
777.99	239.35
778.32	242.74
778.64	244.22
778.97	235.96
779.30	238.08
779.62	237.02
779.95	232.56
780.28	237.44
780.61	228.96
780.93	227.90
781.26	230.87
781.59	231.93
781.92	226.84
782.24	232.14
782.57	222.80
782.90	221.95
783.22	224.71
783.55	225.14
783.88	223.44
784.20	222.59
784.53	216.01
784.86	220.68
785.18	220.25
785.51	213.46
785.84	218.56
786.16	210.05
786.49	211.12
786.81	207.29
787.14	202.82
787.47	206.01
787.79	203.03
788.12	200.27
788.44	200.48
788.77	192.38
789.10	194.09
789.42	191.96
789.75	190.04
790.07	183.86
790.40	188.55
790.73	189.40
791.05	187.27
791.38	186.42
791.70	185.35
792.03	184.50
792.35	180.23
792.68	179.80
793.00	181.72
793.33	184.07
793.65	185.14
793.98	184.92
794.30	182.79
794.63	182.58
794.95	181.72
795.28	183.43
795.60	176.60
795.93	176.39
796.25	175.96
796.58	174.46
796.90	171.04
797.23	171.47
797.55	178.09
797.88	177.67
798.20	176.60
798.53	175.10
798.85	174.04
799.17	171.69
799.50	172.75
799.82	166.77
800.15	163.99
800.47	168.69
800.80	167.41
801.12	162.07
801.44	161.42
801.77	163.35
802.09	161.00
802.42	155.22
802.74	157.14
803.06	160.35
803.39	158.86
803.71	154.79
804.03	156.07
804.36	157.79
804.68	159.07
805.00	157.57
805.33	154.57
805.65	162.92
805.97	151.79
806.30	157.57
806.62	156.50
806.94	154.15
807.27	159.28
807.59	153.50
807.91	154.36
808.24	149.86
808.56	150.72
808.88	149.86
809.21	148.36
809.53	146.43
809.85	143.65
810.17	142.79
810.50	138.71
810.82	137.64
811.14	134.85
811.46	132.27
811.79	129.70
812.11	127.12
812.43	123.89
812.75	120.88
813.07	114.00
813.40	112.92
813.72	107.97
814.04	106.46
814.36	100.64
814.69	97.62
815.01	94.60
815.33	97.83
815.65	90.71
815.97	88.77
816.29	84.88
816.62	84.88
816.94	86.82
817.26	85.31
817.58	84.66
817.90	80.12
818.22	81.42
818.54	86.17
818.87	87.25
819.19	86.61
819.51	84.66
819.83	90.71
820.15	97.40
820.47	99.56
820.79	98.91
821.11	99.56
821.43	104.09
821.76	97.40
822.08	91.57
822.40	82.07
822.72	75.36
823.04	77.96
823.36	79.04
823.68	80.12
824.00	85.31
824.32	85.96
824.64	91.57
824.96	93.52
825.28	94.81
825.60	99.99
825.92	96.54
826.24	96.54
826.56	95.89
826.88	95.03
827.20	96.76
827.52	89.20
827.84	89.20
828.16	88.55
828.48	89.20
828.80	84.66
829.12	88.33
829.44	88.12
829.76	88.33
830.08	92.01
830.40	87.69
830.72	90.28
831.04	93.30
831.36	87.25
831.68	86.39
832.00	89.63
832.31	88.33
832.63	86.39
832.95	91.36
833.27	88.12
833.59	88.55
833.91	90.28
834.23	95.03
834.55	93.09
834.87	96.54
835.19	93.95
835.50	97.19
835.82	96.54
836.14	95.89
836.46	96.97
836.78	94.17
837.10	96.97
837.41	99.56
837.73	95.89
838.05	98.70
838.37	100.42
838.69	98.91
839.01	101.29
839.32	98.91
839.64	100.42
839.96	97.83
840.28	98.27
840.60	99.34
840.91	99.78
841.23	99.34
841.55	98.05
841.87	99.78
842.18	99.13
842.50	96.32
842.82	98.27
843.14	95.03
843.45	97.19
843.77	97.83
844.09	98.91
844.41	96.11
844.72	94.81
845.04	95.24
845.36	93.09
845.67	96.97
845.99	98.27
846.31	96.97
846.63	97.40
846.94	98.48
847.26	98.27
847.58	96.54
847.89	99.78
848.21	96.76
848.53	94.60
848.84	95.03
849.16	96.32
849.48	91.14
849.79	90.93
850.11	90.71
850.42	92.01
850.74	88.55
851.06	92.01
851.37	88.77
851.69	88.98
852.00	91.36
852.32	90.71
852.64	90.06
852.95	89.63
853.27	89.63
853.58	84.44
853.90	82.28
854.22	79.90
854.53	79.69
854.85	80.77
855.16	79.69
855.48	84.66
855.79	84.01
856.11	86.17
856.42	85.31
856.74	90.93
857.05	87.47
857.37	87.04
857.68	87.04
858.00	89.63
858.31	86.39
858.63	86.17
858.94	87.25
859.26	85.96
859.57	84.66
859.89	85.96
860.20	88.12
860.52	84.66
860.83	81.85
861.15	82.50
861.46	84.88
861.78	87.25
862.09	84.01
862.41	83.15
862.72	84.23
863.03	84.23
863.35	82.50
863.66	85.31
863.98	81.42
864.29	84.88
864.60	77.31
864.92	82.50
865.23	81.63
865.55	79.47
865.86	75.36
866.17	71.68
866.49	72.76
866.80	72.76
867.11	70.81
867.43	76.01
867.74	73.63
868.06	74.93
868.37	74.28
868.68	75.36
869.00	75.58
869.31	73.63
869.62	72.11
869.93	77.52
870.25	77.09
870.56	78.61
870.87	75.14
871.19	73.85
871.50	75.14
871.81	71.03
872.13	72.76
872.44	71.46
872.75	74.93
873.06	71.46
873.38	71.68
873.69	72.11
874.00	71.03
874.31	70.38
874.63	72.98
874.94	70.81
875.25	66.91
875.56	68.43
875.87	70.60
876.19	68.21
876.50	70.16
876.81	64.75
877.12	67.56
877.43	64.10
877.75	65.83
878.06	66.70
878.37	66.91
878.68	66.48
878.99	66.70
879.30	65.18
879.62	63.88
879.93	63.23
880.24	62.80
880.55	61.71
880.86	61.71
881.17	61.28
881.48	59.33
881.80	62.58
882.11	62.58
882.42	61.71
882.73	60.84
883.04	60.84
883.35	63.01
883.66	60.63
883.97	59.33
884.28	62.15
884.59	60.84
884.90	60.84
885.21	59.76
885.53	59.76
885.84	59.33
886.15	57.16
886.46	53.90
886.77	54.99
887.08	58.67
887.39	57.81
887.70	59.33
888.01	59.54
888.32	57.37
888.63	58.46
888.94	56.50
889.25	56.94
889.56	54.12
889.87	55.42
890.18	56.72
890.49	56.50
890.80	55.64
891.11	56.29
891.42	54.99
891.73	56.07
892.04	53.47
892.34	55.20
892.65	52.38
892.96	49.34
893.27	49.12
893.58	48.47
893.89	48.69
894.20	47.38
894.51	44.56
894.82	43.25
895.13	44.56
895.44	40.64
895.74	41.51
896.05	38.47
896.36	38.68
896.67	38.25
896.98	36.29
897.29	35.64
897.60	32.37
897.91	34.55
898.21	34.11
898.52	31.50
898.83	30.85
899.14	29.76
899.45	29.54
899.76	29.54
900.06	32.15
900.37	31.28
900.68	29.32
900.99	27.14
901.30	28.45
901.60	28.45
901.91	25.83
902.22	27.36
902.53	27.36
902.83	28.01
903.14	30.63
903.45	32.81
903.76	33.90
904.06	34.33
904.37	37.38
904.68	35.42
904.99	36.07
905.29	35.86
905.60	33.46
905.91	29.76
906.22	32.81
906.52	32.37
906.83	32.15
907.14	28.01
907.44	27.36
907.75	28.01
908.06	28.88
908.36	27.58
908.67	27.36
908.98	24.31
909.28	25.83
909.59	24.74
909.90	24.96
910.20	24.96
910.51	24.96
910.82	23.87
911.12	23.43
911.43	25.18
911.73	28.67
912.04	25.40
912.35	24.52
912.65	24.31
912.96	22.78
913.26	21.47
913.57	22.78
913.88	21.91
914.18	21.47
914.49	23.22
914.79	22.56
915.10	20.82
915.40	21.47
915.71	22.13
916.02	22.34
916.32	23.22
916.63	22.56
916.93	22.34
917.24	21.69
917.54	20.82
917.85	21.25
918.15	19.73
918.46	22.78
918.76	25.40
919.07	22.56
919.37	24.31
919.68	24.52
919.98	25.40
920.29	24.96
920.59	27.36
920.90	26.92
921.20	27.58
921.50	23.87
921.81	23.22
922.11	26.49
922.42	26.05
922.72	24.52
923.03	24.31
923.33	24.09
923.63	23.87
923.94	24.09
924.24	22.78
924.55	23.43
924.85	22.78
925.15	23.00
925.46	22.13
925.76	21.03
926.07	20.82
926.37	20.60
926.67	19.73
926.98	22.56
927.28	21.91
927.58	19.07
927.89	19.29
928.19	17.54
928.49	17.32
928.80	15.14
929.10	14.92
929.40	16.01
929.71	16.23
930.01	13.61
930.31	13.61
930.62	10.55
930.92	10.33
931.22	11.43
931.52	10.55
931.83	9.24
932.13	9.24
932.43	7.93
932.73	7.71
933.04	6.18
933.34	7.05
933.64	6.62
933.94	4.65
934.25	3.99
934.55	5.09
934.85	7.27
935.15	5.96
935.45	4.43
935.76	3.55
936.06	4.65
936.36	5.96
936.66	3.99
936.96	4.65
937.27	5.09
937.57	4.87
937.87	5.30
938.17	6.18
938.47	5.96
938.77	4.87
939.08	4.21
939.38	6.40
939.68	8.58
939.98	8.58
940.28	7.27
940.58	7.49
940.88	7.27
941.18	5.96
941.49	4.65
941.79	7.93
942.09	6.62
942.39	7.93
942.69	6.40
942.99	6.84
943.29	6.62
943.59	6.40
943.89	7.27
944.19	7.71
944.49	5.96
944.79	6.18
945.09	4.65
945.39	5.52
945.70	6.40
946.00	4.43
946.30	5.96
946.60	5.30
946.90	5.74
947.20	5.30
947.50	7.49
947.80	7.27
948.10	5.09
948.40	5.30
948.70	6.40
949.00	7.49
949.30	5.52
949.59	5.52
949.89	2.90
950.19	4.43
950.49	4.43
950.79	6.40
951.09	5.74
951.39	7.05
951.69	7.49
951.99	6.62
952.29	5.30
952.59	4.65
952.89	6.18
953.19	7.49
953.49	7.05
953.78	6.62
954.08	6.18
954.38	5.52
954.68	6.84
954.98	5.74
955.28	6.62
955.58	4.87
955.88	3.99
956.17	6.18
956.47	6.40
956.77	6.62
957.07	6.62
957.37	5.96
957.67	5.52
957.96	5.30
958.26	7.27
958.56	6.18
958.86	7.27
959.16	6.62
959.45	7.05
959.75	7.05
960.05	7.05
960.35	6.62
960.64	6.62
960.94	5.09
961.24	5.09
961.54	5.74
961.83	5.74
962.13	4.87
962.43	5.96
962.73	6.18
963.02	5.74
963.32	7.49
963.62	7.27
963.92	7.05
964.21	7.49
964.51	7.71
964.81	6.84
965.10	5.09
965.40	8.15
965.70	8.58
965.99	8.15
966.29	7.71
966.59	8.15
966.88	7.49
967.18	6.40
967.48	5.74
967.77	6.18
968.07	7.49
968.37	7.93
968.66	8.58
968.96	7.71
969.25	7.49
969.55	8.58
969.85	10.77
970.14	9.24
970.44	8.80
970.73	7.27
971.03	8.37
971.33	11.21
971.62	10.33
971.92	8.37
972.21	9.46
972.51	10.77
972.80	9.68
973.10	8.58
973.40	9.68
973.69	9.46
973.99	8.15
974.28	8.58
974.58	7.93
974.87	6.84
975.17	9.02
975.46	8.15
975.76	9.24
976.05	9.02
976.35	8.15
976.64	7.27
976.94	7.27
977.23	6.62
977.53	7.71
977.82	6.40
978.11	8.37
978.41	8.15
978.70	7.71
979.00	7.49
979.29	7.49
979.59	7.27
979.88	8.58
980.18	9.68
980.47	9.46
980.76	9.24
981.06	6.84
981.35	7.71
981.65	9.02
981.94	9.02
982.23	8.58
982.53	8.15
982.82	7.93
983.11	6.18
983.41	5.09
983.70	7.05
984.00	7.71
984.29	7.93
984.58	8.58
984.88	9.02
985.17	8.58
985.46	7.93
985.76	9.02
986.05	9.68
986.34	9.02
986.63	8.58
986.93	8.80
987.22	9.24
987.51	8.58
987.81	8.58
988.10	8.80
988.39	8.37
988.68	8.15
988.98	9.24
989.27	9.02
989.56	8.15
989.85	8.15
990.15	8.58
990.44	8.37
990.73	8.15
991.02	8.58
991.32	8.58
991.61	9.46
991.90	7.71
992.19	6.40
992.48	7.27
992.78	8.37
993.07	8.37
993.36	6.40
993.65	6.84
993.94	6.84
994.23	6.84
994.53	5.96
994.82	7.49
995.11	9.24
995.40	7.93
995.69	7.49
995.98	7.49
996.27	7.27
996.57	7.71
996.86	7.71
997.15	7.49
997.44	8.58
997.73	9.24
998.02	9.24
998.31	9.46
998.60	8.80
998.89	8.58
999.18	9.24
999.48	8.15
999.77	7.71
1000.06	7.71
1000.35	7.05
1000.64	7.27
1000.93	7.05
1001.22	7.05
1001.51	6.84
1001.80	8.15
1002.09	8.80
1002.38	7.05
1002.67	6.62
1002.96	8.15
1003.25	6.40
1003.54	7.05
1003.83	5.30
1004.12	4.87
1004.41	5.74
1004.70	5.96
1004.99	7.71
1005.28	7.93
1005.57	5.96
1005.86	6.18
1006.15	6.18
1006.44	6.62
1006.72	4.87
1007.01	5.74
1007.30	6.18
1007.59	4.87
1007.88	6.18
1008.17	5.74
1008.46	5.52
1008.75	6.18
1009.04	5.30
1009.33	4.87
1009.62	4.43
1009.90	7.71
1010.19	6.18
1010.48	6.84
1010.77	6.40
1011.06	7.27
1011.35	4.65
1011.64	6.18
1011.92	6.40
1012.21	7.27
1012.50	6.62
1012.79	5.74
1013.08	5.74
1013.37	5.96
1013.65	4.65
1013.94	5.30
1014.23	3.99
1014.52	4.21
1014.80	5.52
1015.09	6.18
1015.38	7.93
1015.67	6.18
1015.96	3.99
1016.24	3.99
1016.53	4.87
1016.82	6.84
1017.11	6.18
1017.39	5.52
1017.68	5.09
1017.97	5.52
1018.25	5.96
1018.54	4.43
1018.83	5.52
1019.12	6.40
1019.40	6.62
1019.69	5.96
1019.98	5.74
1020.26	4.87
1020.55	3.77
1020.84	3.34
1021.12	4.87
1021.41	5.52
1021.70	4.87
1021.98	2.90
1022.27	3.99
1022.56	5.52
1022.84	4.87
1023.13	5.52
1023.42	5.52
1023.70	4.21
1023.99	3.12
1024.27	6.40
1024.56	5.30
1024.85	4.21
1025.13	4.87
1025.42	4.21
1025.70	3.55
1025.99	5.30
1026.27	5.09
1026.56	3.77
1026.85	3.55
1027.13	3.34
1027.42	4.65
1027.70	3.55
1027.99	3.12
1028.27	3.77
1028.56	4.43
1028.84	4.87
>>>>>End Processed Spectral Data<<<<<
